70BCSV 	
// AQ6370B OPTICAL SPECTRUM ANALYZER //                 
25
"CTRWL",1550.000000
"SPAN", 100.000000
"START WL",1500.000000
"STOP WL",1600.000000
"WLFREQ", 0
"REFL",-28.8
"LSCL", 5.0
"RESLN",0.100
"AVG",   1
"SMPLAUTO",      0
"SMPL",       5001
"SMPLINTVL",0.0200
"HIGH1"
"MEAS"
"LSUNT",0
"NMSKH","OFF"
"RESCOR",0
"RESPARM", 9050
"FREQPARM", 9050






"[TRACE DATA]"
1500.0000, -61.660
1500.0200, -61.616
1500.0400, -61.612
1500.0600, -61.666
1500.0800, -61.615
1500.1000, -61.616
1500.1200, -61.647
1500.1400, -61.582
1500.1600, -61.576
1500.1800, -61.593
1500.2000, -61.615
1500.2200, -61.565
1500.2400, -61.566
1500.2600, -61.568
1500.2800, -61.553
1500.3000, -61.570
1500.3200, -61.561
1500.3400, -61.559
1500.3600, -61.529
1500.3800, -61.541
1500.4000, -61.536
1500.4200, -61.523
1500.4400, -61.544
1500.4600, -61.536
1500.4800, -61.485
1500.5000, -61.522
1500.5200, -61.465
1500.5400, -61.485
1500.5600, -61.514
1500.5800, -61.464
1500.6000, -61.489
1500.6200, -61.474
1500.6400, -61.484
1500.6600, -61.488
1500.6800, -61.477
1500.7000, -61.480
1500.7200, -61.437
1500.7400, -61.430
1500.7600, -61.397
1500.7800, -61.428
1500.8000, -61.427
1500.8200, -61.398
1500.8400, -61.384
1500.8600, -61.404
1500.8800, -61.400
1500.9000, -61.378
1500.9200, -61.396
1500.9400, -61.384
1500.9600, -61.375
1500.9800, -61.356
1501.0000, -61.342
1501.0200, -61.362
1501.0400, -61.343
1501.0600, -61.334
1501.0800, -61.352
1501.1000, -61.323
1501.1200, -61.297
1501.1400, -61.331
1501.1600, -61.312
1501.1800, -61.300
1501.2000, -61.286
1501.2200, -61.255
1501.2400, -61.295
1501.2600, -61.293
1501.2800, -61.311
1501.3000, -61.284
1501.3200, -61.285
1501.3400, -61.248
1501.3600, -61.224
1501.3800, -61.237
1501.4000, -61.243
1501.4200, -61.222
1501.4400, -61.210
1501.4600, -61.229
1501.4800, -61.224
1501.5000, -61.204
1501.5200, -61.240
1501.5400, -61.205
1501.5600, -61.197
1501.5800, -61.213
1501.6000, -61.215
1501.6200, -61.214
1501.6400, -61.178
1501.6600, -61.187
1501.6800, -61.138
1501.7000, -61.170
1501.7200, -61.144
1501.7400, -61.156
1501.7600, -61.122
1501.7800, -61.128
1501.8000, -61.131
1501.8200, -61.136
1501.8400, -61.135
1501.8600, -61.114
1501.8800, -61.143
1501.9000, -61.125
1501.9200, -61.059
1501.9400, -61.107
1501.9600, -61.058
1501.9800, -61.084
1502.0000, -61.071
1502.0200, -61.076
1502.0400, -61.039
1502.0600, -61.029
1502.0800, -61.086
1502.1000, -61.021
1502.1200, -61.052
1502.1400, -61.035
1502.1600, -60.999
1502.1800, -61.032
1502.2000, -60.996
1502.2200, -61.010
1502.2400, -61.011
1502.2600, -60.979
1502.2800, -60.964
1502.3000, -61.022
1502.3200, -60.964
1502.3400, -60.961
1502.3600, -60.939
1502.3800, -60.985
1502.4000, -60.949
1502.4200, -60.913
1502.4400, -60.944
1502.4600, -60.908
1502.4800, -60.922
1502.5000, -60.913
1502.5200, -60.890
1502.5400, -60.891
1502.5600, -60.930
1502.5800, -60.886
1502.6000, -60.880
1502.6200, -60.870
1502.6400, -60.851
1502.6600, -60.848
1502.6800, -60.852
1502.7000, -60.853
1502.7200, -60.813
1502.7400, -60.841
1502.7600, -60.837
1502.7800, -60.804
1502.8000, -60.807
1502.8200, -60.819
1502.8400, -60.775
1502.8600, -60.798
1502.8800, -60.814
1502.9000, -60.778
1502.9200, -60.768
1502.9400, -60.742
1502.9600, -60.742
1502.9800, -60.721
1503.0000, -60.723
1503.0200, -60.712
1503.0400, -60.734
1503.0600, -60.715
1503.0800, -60.722
1503.1000, -60.714
1503.1200, -60.702
1503.1400, -60.682
1503.1600, -60.686
1503.1800, -60.696
1503.2000, -60.666
1503.2200, -60.666
1503.2400, -60.685
1503.2600, -60.666
1503.2800, -60.643
1503.3000, -60.662
1503.3200, -60.663
1503.3400, -60.615
1503.3600, -60.607
1503.3800, -60.660
1503.4000, -60.590
1503.4200, -60.571
1503.4400, -60.606
1503.4600, -60.603
1503.4800, -60.589
1503.5000, -60.561
1503.5200, -60.587
1503.5400, -60.584
1503.5600, -60.546
1503.5800, -60.550
1503.6000, -60.557
1503.6200, -60.520
1503.6400, -60.521
1503.6600, -60.529
1503.6800, -60.511
1503.7000, -60.495
1503.7200, -60.489
1503.7400, -60.483
1503.7600, -60.465
1503.7800, -60.472
1503.8000, -60.447
1503.8200, -60.467
1503.8400, -60.447
1503.8600, -60.448
1503.8800, -60.456
1503.9000, -60.436
1503.9200, -60.433
1503.9400, -60.417
1503.9600, -60.393
1503.9800, -60.423
1504.0000, -60.407
1504.0200, -60.375
1504.0400, -60.379
1504.0600, -60.384
1504.0800, -60.363
1504.1000, -60.366
1504.1200, -60.353
1504.1400, -60.322
1504.1600, -60.339
1504.1800, -60.353
1504.2000, -60.312
1504.2200, -60.330
1504.2400, -60.321
1504.2600, -60.294
1504.2800, -60.293
1504.3000, -60.303
1504.3200, -60.280
1504.3400, -60.269
1504.3600, -60.270
1504.3800, -60.269
1504.4000, -60.244
1504.4200, -60.277
1504.4400, -60.243
1504.4600, -60.206
1504.4800, -60.257
1504.5000, -60.229
1504.5200, -60.210
1504.5400, -60.190
1504.5600, -60.178
1504.5800, -60.176
1504.6000, -60.162
1504.6200, -60.167
1504.6400, -60.141
1504.6600, -60.156
1504.6800, -60.160
1504.7000, -60.117
1504.7200, -60.150
1504.7400, -60.107
1504.7600, -60.127
1504.7800, -60.097
1504.8000, -60.106
1504.8200, -60.107
1504.8400, -60.051
1504.8600, -60.094
1504.8800, -60.059
1504.9000, -60.066
1504.9200, -60.038
1504.9400, -60.031
1504.9600, -60.018
1504.9800, -60.013
1505.0000, -60.036
1505.0200, -60.002
1505.0400, -59.986
1505.0600, -59.988
1505.0800, -59.987
1505.1000, -59.967
1505.1200, -59.983
1505.1400, -59.956
1505.1600, -59.977
1505.1800, -59.952
1505.2000, -59.951
1505.2200, -59.951
1505.2400, -59.921
1505.2600, -59.928
1505.2800, -59.918
1505.3000, -59.880
1505.3200, -59.921
1505.3400, -59.910
1505.3600, -59.880
1505.3800, -59.889
1505.4000, -59.866
1505.4200, -59.851
1505.4400, -59.845
1505.4600, -59.880
1505.4800, -59.862
1505.5000, -59.813
1505.5200, -59.807
1505.5400, -59.804
1505.5600, -59.793
1505.5800, -59.794
1505.6000, -59.786
1505.6200, -59.784
1505.6400, -59.765
1505.6600, -59.752
1505.6800, -59.756
1505.7000, -59.757
1505.7200, -59.755
1505.7400, -59.757
1505.7600, -59.722
1505.7800, -59.721
1505.8000, -59.678
1505.8200, -59.707
1505.8400, -59.675
1505.8600, -59.695
1505.8800, -59.677
1505.9000, -59.663
1505.9200, -59.658
1505.9400, -59.651
1505.9600, -59.648
1505.9800, -59.634
1506.0000, -59.613
1506.0200, -59.619
1506.0400, -59.627
1506.0600, -59.612
1506.0800, -59.620
1506.1000, -59.615
1506.1200, -59.569
1506.1400, -59.583
1506.1600, -59.573
1506.1800, -59.566
1506.2000, -59.578
1506.2200, -59.564
1506.2400, -59.529
1506.2600, -59.530
1506.2800, -59.508
1506.3000, -59.521
1506.3200, -59.514
1506.3400, -59.516
1506.3600, -59.484
1506.3800, -59.483
1506.4000, -59.467
1506.4200, -59.461
1506.4400, -59.502
1506.4600, -59.413
1506.4800, -59.456
1506.5000, -59.415
1506.5200, -59.433
1506.5400, -59.408
1506.5600, -59.429
1506.5800, -59.389
1506.6000, -59.397
1506.6200, -59.381
1506.6400, -59.345
1506.6600, -59.362
1506.6800, -59.354
1506.7000, -59.355
1506.7200, -59.350
1506.7400, -59.351
1506.7600, -59.322
1506.7800, -59.298
1506.8000, -59.339
1506.8200, -59.306
1506.8400, -59.273
1506.8600, -59.295
1506.8800, -59.270
1506.9000, -59.274
1506.9200, -59.254
1506.9400, -59.243
1506.9600, -59.239
1506.9800, -59.240
1507.0000, -59.219
1507.0200, -59.219
1507.0400, -59.206
1507.0600, -59.177
1507.0800, -59.193
1507.1000, -59.201
1507.1200, -59.189
1507.1400, -59.169
1507.1600, -59.173
1507.1800, -59.163
1507.2000, -59.182
1507.2200, -59.113
1507.2400, -59.172
1507.2600, -59.120
1507.2800, -59.141
1507.3000, -59.129
1507.3200, -59.097
1507.3400, -59.089
1507.3600, -59.088
1507.3800, -59.075
1507.4000, -59.064
1507.4200, -59.063
1507.4400, -59.048
1507.4600, -59.041
1507.4800, -59.042
1507.5000, -59.027
1507.5200, -59.008
1507.5400, -58.999
1507.5600, -58.992
1507.5800, -58.975
1507.6000, -58.964
1507.6200, -58.957
1507.6400, -58.979
1507.6600, -58.944
1507.6800, -58.940
1507.7000, -58.938
1507.7200, -58.921
1507.7400, -58.909
1507.7600, -58.898
1507.7800, -58.898
1507.8000, -58.894
1507.8200, -58.869
1507.8400, -58.864
1507.8600, -58.869
1507.8800, -58.842
1507.9000, -58.868
1507.9200, -58.829
1507.9400, -58.827
1507.9600, -58.840
1507.9800, -58.800
1508.0000, -58.776
1508.0200, -58.807
1508.0400, -58.779
1508.0600, -58.797
1508.0800, -58.792
1508.1000, -58.771
1508.1200, -58.777
1508.1400, -58.743
1508.1600, -58.741
1508.1800, -58.744
1508.2000, -58.716
1508.2200, -58.714
1508.2400, -58.729
1508.2600, -58.718
1508.2800, -58.711
1508.3000, -58.677
1508.3200, -58.690
1508.3400, -58.681
1508.3600, -58.666
1508.3800, -58.647
1508.4000, -58.645
1508.4200, -58.633
1508.4400, -58.601
1508.4600, -58.620
1508.4800, -58.600
1508.5000, -58.595
1508.5200, -58.607
1508.5400, -58.574
1508.5600, -58.590
1508.5800, -58.568
1508.6000, -58.562
1508.6200, -58.539
1508.6400, -58.539
1508.6600, -58.520
1508.6800, -58.513
1508.7000, -58.513
1508.7200, -58.500
1508.7400, -58.508
1508.7600, -58.480
1508.7800, -58.487
1508.8000, -58.464
1508.8200, -58.464
1508.8400, -58.468
1508.8600, -58.444
1508.8800, -58.447
1508.9000, -58.410
1508.9200, -58.413
1508.9400, -58.400
1508.9600, -58.385
1508.9800, -58.388
1509.0000, -58.381
1509.0200, -58.354
1509.0400, -58.367
1509.0600, -58.365
1509.0800, -58.351
1509.1000, -58.349
1509.1200, -58.336
1509.1400, -58.311
1509.1600, -58.336
1509.1800, -58.302
1509.2000, -58.290
1509.2200, -58.297
1509.2400, -58.264
1509.2600, -58.261
1509.2800, -58.260
1509.3000, -58.263
1509.3200, -58.239
1509.3400, -58.240
1509.3600, -58.190
1509.3800, -58.198
1509.4000, -58.191
1509.4200, -58.181
1509.4400, -58.165
1509.4600, -58.173
1509.4800, -58.160
1509.5000, -58.139
1509.5200, -58.139
1509.5400, -58.138
1509.5600, -58.119
1509.5800, -58.109
1509.6000, -58.101
1509.6200, -58.088
1509.6400, -58.088
1509.6600, -58.071
1509.6800, -58.074
1509.7000, -58.059
1509.7200, -58.045
1509.7400, -58.030
1509.7600, -58.052
1509.7800, -58.010
1509.8000, -57.995
1509.8200, -57.991
1509.8400, -58.013
1509.8600, -57.980
1509.8800, -57.971
1509.9000, -57.938
1509.9200, -57.935
1509.9400, -57.962
1509.9600, -57.945
1509.9800, -57.928
1510.0000, -57.928
1510.0200, -57.891
1510.0400, -57.893
1510.0600, -57.897
1510.0800, -57.870
1510.1000, -57.876
1510.1200, -57.857
1510.1400, -57.839
1510.1600, -57.835
1510.1800, -57.841
1510.2000, -57.823
1510.2200, -57.792
1510.2400, -57.803
1510.2600, -57.799
1510.2800, -57.755
1510.3000, -57.766
1510.3200, -57.728
1510.3400, -57.746
1510.3600, -57.713
1510.3800, -57.695
1510.4000, -57.708
1510.4200, -57.697
1510.4400, -57.682
1510.4600, -57.649
1510.4800, -57.659
1510.5000, -57.652
1510.5200, -57.632
1510.5400, -57.624
1510.5600, -57.622
1510.5800, -57.600
1510.6000, -57.592
1510.6200, -57.582
1510.6400, -57.585
1510.6600, -57.554
1510.6800, -57.543
1510.7000, -57.536
1510.7200, -57.532
1510.7400, -57.519
1510.7600, -57.513
1510.7800, -57.506
1510.8000, -57.471
1510.8200, -57.455
1510.8400, -57.464
1510.8600, -57.452
1510.8800, -57.419
1510.9000, -57.433
1510.9200, -57.429
1510.9400, -57.419
1510.9600, -57.419
1510.9800, -57.373
1511.0000, -57.392
1511.0200, -57.370
1511.0400, -57.353
1511.0600, -57.336
1511.0800, -57.341
1511.1000, -57.319
1511.1200, -57.321
1511.1400, -57.306
1511.1600, -57.316
1511.1800, -57.302
1511.2000, -57.274
1511.2200, -57.271
1511.2400, -57.246
1511.2600, -57.237
1511.2800, -57.219
1511.3000, -57.193
1511.3200, -57.195
1511.3400, -57.192
1511.3600, -57.178
1511.3800, -57.177
1511.4000, -57.158
1511.4200, -57.125
1511.4400, -57.129
1511.4600, -57.127
1511.4800, -57.100
1511.5000, -57.096
1511.5200, -57.074
1511.5400, -57.064
1511.5600, -57.053
1511.5800, -57.046
1511.6000, -57.040
1511.6200, -57.027
1511.6400, -57.011
1511.6600, -56.999
1511.6800, -56.993
1511.7000, -56.978
1511.7200, -56.962
1511.7400, -56.956
1511.7600, -56.938
1511.7800, -56.922
1511.8000, -56.922
1511.8200, -56.906
1511.8400, -56.912
1511.8600, -56.879
1511.8800, -56.868
1511.9000, -56.881
1511.9200, -56.861
1511.9400, -56.848
1511.9600, -56.841
1511.9800, -56.814
1512.0000, -56.797
1512.0200, -56.797
1512.0400, -56.809
1512.0600, -56.769
1512.0800, -56.753
1512.1000, -56.763
1512.1200, -56.729
1512.1400, -56.714
1512.1600, -56.716
1512.1800, -56.712
1512.2000, -56.695
1512.2200, -56.682
1512.2400, -56.687
1512.2600, -56.649
1512.2800, -56.654
1512.3000, -56.630
1512.3200, -56.628
1512.3400, -56.613
1512.3600, -56.594
1512.3800, -56.601
1512.4000, -56.581
1512.4200, -56.577
1512.4400, -56.548
1512.4600, -56.553
1512.4800, -56.540
1512.5000, -56.518
1512.5200, -56.512
1512.5400, -56.487
1512.5600, -56.484
1512.5800, -56.476
1512.6000, -56.468
1512.6200, -56.432
1512.6400, -56.437
1512.6600, -56.419
1512.6800, -56.407
1512.7000, -56.405
1512.7200, -56.380
1512.7400, -56.369
1512.7600, -56.363
1512.7800, -56.344
1512.8000, -56.345
1512.8200, -56.322
1512.8400, -56.315
1512.8600, -56.324
1512.8800, -56.307
1512.9000, -56.300
1512.9200, -56.270
1512.9400, -56.261
1512.9600, -56.271
1512.9800, -56.247
1513.0000, -56.213
1513.0200, -56.231
1513.0400, -56.218
1513.0600, -56.213
1513.0800, -56.179
1513.1000, -56.180
1513.1200, -56.169
1513.1400, -56.141
1513.1600, -56.132
1513.1800, -56.116
1513.2000, -56.109
1513.2200, -56.096
1513.2400, -56.093
1513.2600, -56.066
1513.2800, -56.056
1513.3000, -56.041
1513.3200, -56.026
1513.3400, -56.034
1513.3600, -56.010
1513.3800, -55.983
1513.4000, -55.980
1513.4200, -55.972
1513.4400, -55.956
1513.4600, -55.944
1513.4800, -55.936
1513.5000, -55.919
1513.5200, -55.911
1513.5400, -55.893
1513.5600, -55.881
1513.5800, -55.876
1513.6000, -55.869
1513.6200, -55.842
1513.6400, -55.821
1513.6600, -55.827
1513.6800, -55.800
1513.7000, -55.792
1513.7200, -55.780
1513.7400, -55.792
1513.7600, -55.770
1513.7800, -55.753
1513.8000, -55.748
1513.8200, -55.732
1513.8400, -55.717
1513.8600, -55.718
1513.8800, -55.694
1513.9000, -55.685
1513.9200, -55.656
1513.9400, -55.649
1513.9600, -55.651
1513.9800, -55.626
1514.0000, -55.602
1514.0200, -55.591
1514.0400, -55.569
1514.0600, -55.589
1514.0800, -55.560
1514.1000, -55.539
1514.1200, -55.522
1514.1400, -55.515
1514.1600, -55.513
1514.1800, -55.503
1514.2000, -55.465
1514.2200, -55.464
1514.2400, -55.454
1514.2600, -55.440
1514.2800, -55.425
1514.3000, -55.418
1514.3200, -55.393
1514.3400, -55.386
1514.3600, -55.369
1514.3800, -55.354
1514.4000, -55.341
1514.4200, -55.327
1514.4400, -55.327
1514.4600, -55.303
1514.4800, -55.277
1514.5000, -55.285
1514.5200, -55.254
1514.5400, -55.254
1514.5600, -55.243
1514.5800, -55.220
1514.6000, -55.203
1514.6200, -55.186
1514.6400, -55.180
1514.6600, -55.166
1514.6800, -55.153
1514.7000, -55.161
1514.7200, -55.143
1514.7400, -55.115
1514.7600, -55.110
1514.7800, -55.090
1514.8000, -55.078
1514.8200, -55.071
1514.8400, -55.064
1514.8600, -55.042
1514.8800, -55.050
1514.9000, -55.016
1514.9200, -55.002
1514.9400, -55.005
1514.9600, -54.967
1514.9800, -54.953
1515.0000, -54.972
1515.0200, -54.949
1515.0400, -54.928
1515.0600, -54.890
1515.0800, -54.886
1515.1000, -54.863
1515.1200, -54.862
1515.1400, -54.850
1515.1600, -54.810
1515.1800, -54.808
1515.2000, -54.804
1515.2200, -54.770
1515.2400, -54.761
1515.2600, -54.745
1515.2800, -54.729
1515.3000, -54.716
1515.3200, -54.700
1515.3400, -54.704
1515.3600, -54.666
1515.3800, -54.677
1515.4000, -54.654
1515.4200, -54.633
1515.4400, -54.623
1515.4600, -54.602
1515.4800, -54.585
1515.5000, -54.572
1515.5200, -54.547
1515.5400, -54.532
1515.5600, -54.522
1515.5800, -54.509
1515.6000, -54.493
1515.6200, -54.477
1515.6400, -54.460
1515.6600, -54.451
1515.6800, -54.457
1515.7000, -54.454
1515.7200, -54.406
1515.7400, -54.398
1515.7600, -54.399
1515.7800, -54.379
1515.8000, -54.354
1515.8200, -54.342
1515.8400, -54.330
1515.8600, -54.306
1515.8800, -54.306
1515.9000, -54.289
1515.9200, -54.262
1515.9400, -54.266
1515.9600, -54.251
1515.9800, -54.234
1516.0000, -54.214
1516.0200, -54.180
1516.0400, -54.155
1516.0600, -54.167
1516.0800, -54.142
1516.1000, -54.114
1516.1200, -54.097
1516.1400, -54.088
1516.1600, -54.060
1516.1800, -54.045
1516.2000, -54.040
1516.2200, -54.013
1516.2400, -54.000
1516.2600, -53.984
1516.2800, -53.982
1516.3000, -53.961
1516.3200, -53.950
1516.3400, -53.927
1516.3600, -53.897
1516.3800, -53.891
1516.4000, -53.871
1516.4200, -53.845
1516.4400, -53.841
1516.4600, -53.817
1516.4800, -53.796
1516.5000, -53.780
1516.5200, -53.760
1516.5400, -53.747
1516.5600, -53.728
1516.5800, -53.716
1516.6000, -53.691
1516.6200, -53.696
1516.6400, -53.674
1516.6600, -53.666
1516.6800, -53.624
1516.7000, -53.620
1516.7200, -53.629
1516.7400, -53.578
1516.7600, -53.569
1516.7800, -53.563
1516.8000, -53.535
1516.8200, -53.525
1516.8400, -53.537
1516.8600, -53.509
1516.8800, -53.455
1516.9000, -53.465
1516.9200, -53.449
1516.9400, -53.396
1516.9600, -53.385
1516.9800, -53.368
1517.0000, -53.352
1517.0200, -53.336
1517.0400, -53.322
1517.0600, -53.291
1517.0800, -53.277
1517.1000, -53.255
1517.1200, -53.237
1517.1400, -53.226
1517.1600, -53.205
1517.1800, -53.176
1517.2000, -53.160
1517.2200, -53.143
1517.2400, -53.135
1517.2600, -53.107
1517.2800, -53.102
1517.3000, -53.072
1517.3200, -53.059
1517.3400, -53.035
1517.3600, -53.010
1517.3800, -53.003
1517.4000, -52.969
1517.4200, -52.960
1517.4400, -52.934
1517.4600, -52.911
1517.4800, -52.896
1517.5000, -52.871
1517.5200, -52.856
1517.5400, -52.838
1517.5600, -52.839
1517.5800, -52.825
1517.6000, -52.797
1517.6200, -52.789
1517.6400, -52.750
1517.6600, -52.748
1517.6800, -52.703
1517.7000, -52.681
1517.7200, -52.667
1517.7400, -52.647
1517.7600, -52.656
1517.7800, -52.630
1517.8000, -52.609
1517.8200, -52.563
1517.8400, -52.582
1517.8600, -52.572
1517.8800, -52.534
1517.9000, -52.477
1517.9200, -52.460
1517.9400, -52.438
1517.9600, -52.415
1517.9800, -52.414
1518.0000, -52.382
1518.0200, -52.358
1518.0400, -52.336
1518.0600, -52.317
1518.0800, -52.290
1518.1000, -52.278
1518.1200, -52.263
1518.1400, -52.231
1518.1600, -52.211
1518.1800, -52.190
1518.2000, -52.161
1518.2200, -52.144
1518.2400, -52.135
1518.2600, -52.099
1518.2800, -52.077
1518.3000, -52.054
1518.3200, -52.029
1518.3400, -52.025
1518.3600, -52.003
1518.3800, -51.972
1518.4000, -51.953
1518.4200, -51.921
1518.4400, -51.905
1518.4600, -51.874
1518.4800, -51.877
1518.5000, -51.859
1518.5200, -51.826
1518.5400, -51.811
1518.5600, -51.779
1518.5800, -51.761
1518.6000, -51.747
1518.6200, -51.710
1518.6400, -51.673
1518.6600, -51.676
1518.6800, -51.641
1518.7000, -51.626
1518.7200, -51.596
1518.7400, -51.592
1518.7600, -51.573
1518.7800, -51.545
1518.8000, -51.511
1518.8200, -51.468
1518.8400, -51.441
1518.8600, -51.435
1518.8800, -51.389
1518.9000, -51.374
1518.9200, -51.348
1518.9400, -51.317
1518.9600, -51.288
1518.9800, -51.264
1519.0000, -51.242
1519.0200, -51.232
1519.0400, -51.205
1519.0600, -51.166
1519.0800, -51.156
1519.1000, -51.119
1519.1200, -51.094
1519.1400, -51.061
1519.1600, -51.050
1519.1800, -51.016
1519.2000, -50.989
1519.2200, -50.972
1519.2400, -50.933
1519.2600, -50.916
1519.2800, -50.893
1519.3000, -50.866
1519.3200, -50.842
1519.3400, -50.798
1519.3600, -50.787
1519.3800, -50.787
1519.4000, -50.764
1519.4200, -50.738
1519.4400, -50.686
1519.4600, -50.673
1519.4800, -50.645
1519.5000, -50.625
1519.5200, -50.592
1519.5400, -50.539
1519.5600, -50.514
1519.5800, -50.485
1519.6000, -50.466
1519.6200, -50.455
1519.6400, -50.426
1519.6600, -50.402
1519.6800, -50.363
1519.7000, -50.351
1519.7200, -50.325
1519.7400, -50.298
1519.7600, -50.269
1519.7800, -50.240
1519.8000, -50.181
1519.8200, -50.143
1519.8400, -50.116
1519.8600, -50.087
1519.8800, -50.055
1519.9000, -50.037
1519.9200, -50.008
1519.9400, -49.972
1519.9600, -49.942
1519.9800, -49.914
1520.0000, -49.879
1520.0200, -49.856
1520.0400, -49.824
1520.0600, -49.790
1520.0800, -49.763
1520.1000, -49.724
1520.1200, -49.691
1520.1400, -49.660
1520.1600, -49.642
1520.1800, -49.605
1520.2000, -49.569
1520.2200, -49.541
1520.2400, -49.504
1520.2600, -49.484
1520.2800, -49.444
1520.3000, -49.407
1520.3200, -49.376
1520.3400, -49.370
1520.3600, -49.361
1520.3800, -49.313
1520.4000, -49.292
1520.4200, -49.257
1520.4400, -49.222
1520.4600, -49.191
1520.4800, -49.134
1520.5000, -49.095
1520.5200, -49.073
1520.5400, -49.048
1520.5600, -49.013
1520.5800, -48.993
1520.6000, -48.967
1520.6200, -48.933
