70BCSV 	
// AQ6370B OPTICAL SPECTRUM ANALYZER //                 
25
"CTRWL",1550.000000
"SPAN", 100.000000
"START WL",1500.000000
"STOP WL",1600.000000
"WLFREQ", 0
"REFL",-62.8
"LSCL", 5.0
"RESLN",0.100
"AVG",   1
"SMPLAUTO",      0
"SMPL",       5001
"SMPLINTVL",0.0200
"HIGH1"
"MEAS"
"LSUNT",0
"NMSKH","OFF"
"RESCOR",0
"RESPARM", 9050
"FREQPARM", 9050






"[TRACE DATA]"
1500.0000,-210.000
1500.0200,-210.000
1500.0400, -89.154
1500.0600, -83.585
1500.0800, -84.081
1500.1000,-210.000
1500.1200,-210.000
1500.1400, -91.475
1500.1600, -86.390
1500.1800, -88.215
1500.2000, -86.175
1500.2200, -85.465
1500.2400, -88.548
1500.2600, -85.149
1500.2800,-210.000
1500.3000,-210.000
1500.3200,-210.000
1500.3400, -85.853
1500.3600, -85.804
1500.3800, -89.296
1500.4000, -86.261
1500.4200,-210.000
1500.4400, -85.784
1500.4600, -86.159
1500.4800, -87.918
1500.5000, -86.284
1500.5200,-210.000
1500.5400,-210.000
1500.5600, -88.060
1500.5800, -87.793
1500.6000,-210.000
1500.6200, -83.935
1500.6400, -86.425
1500.6600,-210.000
1500.6800, -85.983
1500.7000, -89.577
1500.7200,-210.000
1500.7400, -85.454
1500.7600,-210.000
1500.7800, -87.906
1500.8000, -91.821
1500.8200, -89.091
1500.8400, -83.842
1500.8600, -86.145
1500.8800,-210.000
1500.9000, -94.310
1500.9200,-102.088
1500.9400, -86.366
1500.9600, -82.980
1500.9800, -90.238
1501.0000, -93.983
1501.0200,-210.000
1501.0400,-210.000
1501.0600, -88.428
1501.0800,-210.000
1501.1000, -84.642
1501.1200,-210.000
1501.1400, -87.831
1501.1600, -84.012
1501.1800,-101.332
1501.2000, -86.297
1501.2200, -89.141
1501.2400,-210.000
1501.2600, -83.873
1501.2800, -88.712
1501.3000, -84.275
1501.3200,-210.000
1501.3400, -89.591
1501.3600, -85.346
1501.3800, -85.814
1501.4000, -94.213
1501.4200,-210.000
1501.4400, -88.693
1501.4600,-210.000
1501.4800, -89.184
1501.5000, -87.285
1501.5200, -87.820
1501.5400,-210.000
1501.5600, -91.015
1501.5800,-210.000
1501.6000, -91.903
1501.6200,-210.000
1501.6400, -86.364
1501.6600,-101.693
1501.6800, -89.498
1501.7000, -84.932
1501.7200,-210.000
1501.7400, -86.753
1501.7600,-210.000
1501.7800, -90.040
1501.8000, -87.506
1501.8200, -89.367
1501.8400,-210.000
1501.8600, -87.555
1501.8800,-210.000
1501.9000, -92.468
1501.9200, -90.170
1501.9400, -87.161
1501.9600, -86.884
1501.9800, -91.255
1502.0000, -87.406
1502.0200, -87.969
1502.0400, -87.194
1502.0600, -89.617
1502.0800,-210.000
1502.1000,-210.000
1502.1200,-210.000
1502.1400, -84.611
1502.1600, -95.322
1502.1800, -94.752
1502.2000, -87.060
1502.2200,-210.000
1502.2400, -85.218
1502.2600, -88.968
1502.2800, -94.993
1502.3000,-210.000
1502.3200, -86.960
1502.3400, -82.611
1502.3600,-210.000
1502.3800, -89.925
1502.4000, -85.103
1502.4200,-210.000
1502.4400, -82.698
1502.4600, -85.817
1502.4800, -89.885
1502.5000, -85.543
1502.5200,-210.000
1502.5400,-210.000
1502.5600,-210.000
1502.5800, -94.812
1502.6000, -85.149
1502.6200,-210.000
1502.6400, -82.634
1502.6600, -89.159
1502.6800, -93.335
1502.7000,-210.000
1502.7200, -88.412
1502.7400,-102.862
1502.7600, -85.211
1502.7800, -88.945
1502.8000, -83.025
1502.8200,-210.000
1502.8400, -88.988
1502.8600, -84.430
1502.8800,-210.000
1502.9000, -85.316
1502.9200,-210.000
1502.9400, -83.548
1502.9600,-210.000
1502.9800, -83.784
1503.0000,-210.000
1503.0200, -89.592
1503.0400, -90.740
1503.0600,-100.350
1503.0800,-210.000
1503.1000,-210.000
1503.1200, -84.319
1503.1400, -92.274
1503.1600, -83.632
1503.1800, -84.253
1503.2000, -87.956
1503.2200, -87.628
1503.2400, -87.749
1503.2600, -84.908
1503.2800, -85.603
1503.3000,-210.000
1503.3200, -88.108
1503.3400, -88.030
1503.3600,-210.000
1503.3800, -81.844
1503.4000,-210.000
1503.4200,-210.000
1503.4400, -89.685
1503.4600, -83.742
1503.4800,-210.000
1503.5000, -89.299
1503.5200, -90.800
1503.5400,-210.000
1503.5600, -99.213
1503.5800, -93.758
1503.6000, -85.372
1503.6200, -97.437
1503.6400, -96.079
1503.6600, -89.517
1503.6800, -90.060
1503.7000, -83.435
1503.7200, -86.942
1503.7400,-101.638
1503.7600,-210.000
1503.7800, -85.271
1503.8000, -92.137
1503.8200, -84.273
1503.8400, -87.796
1503.8600, -87.572
1503.8800,-210.000
1503.9000, -86.587
1503.9200, -92.920
1503.9400, -85.003
1503.9600,-210.000
1503.9800, -83.218
1504.0000,-210.000
1504.0200, -82.588
1504.0400,-210.000
1504.0600, -82.987
1504.0800, -91.527
1504.1000,-210.000
1504.1200, -83.421
1504.1400,-210.000
1504.1600, -81.271
1504.1800,-210.000
1504.2000, -99.045
1504.2200, -84.097
1504.2400, -87.069
1504.2600,-210.000
1504.2800,-210.000
1504.3000, -84.805
1504.3200, -84.279
1504.3400, -86.225
1504.3600,-210.000
1504.3800, -83.554
1504.4000, -85.155
1504.4200, -87.494
1504.4400,-210.000
1504.4600, -88.823
1504.4800,-210.000
1504.5000, -81.978
1504.5200,-210.000
1504.5400, -82.290
1504.5600, -82.644
1504.5800,-210.000
1504.6000,-210.000
1504.6200, -85.638
1504.6400,-101.516
1504.6600, -91.360
1504.6800, -81.524
1504.7000, -87.266
1504.7200,-210.000
1504.7400, -94.109
1504.7600, -94.369
1504.7800, -86.569
1504.8000, -82.990
1504.8200, -83.762
1504.8400,-210.000
1504.8600,-210.000
1504.8800, -90.223
1504.9000, -91.732
1504.9200, -83.414
1504.9400, -89.420
1504.9600, -84.999
1504.9800,-210.000
1505.0000, -87.424
1505.0200, -82.250
1505.0400, -87.669
1505.0600, -85.712
1505.0800,-210.000
1505.1000, -89.607
1505.1200, -91.953
1505.1400,-103.785
1505.1600,-210.000
1505.1800, -85.479
1505.2000, -90.668
1505.2200,-210.000
1505.2400, -85.675
1505.2600,-210.000
1505.2800, -82.866
1505.3000, -86.892
1505.3200,-210.000
1505.3400, -88.298
1505.3600,-210.000
1505.3800,-210.000
1505.4000, -91.719
1505.4200, -84.062
1505.4400, -88.698
1505.4600,-210.000
1505.4800, -82.394
1505.5000,-210.000
1505.5200, -85.256
1505.5400,-210.000
1505.5600,-210.000
1505.5800, -86.846
1505.6000, -91.727
1505.6200, -86.721
1505.6400, -85.560
1505.6600, -85.506
1505.6800, -84.991
1505.7000, -85.838
1505.7200,-210.000
1505.7400, -87.756
1505.7600,-210.000
1505.7800, -83.720
1505.8000,-210.000
1505.8200, -88.143
1505.8400,-210.000
1505.8600,-210.000
1505.8800, -88.296
1505.9000, -86.578
1505.9200, -86.027
1505.9400,-210.000
1505.9600,-210.000
1505.9800, -89.282
1506.0000, -82.930
1506.0200, -83.922
1506.0400,-100.497
1506.0600,-210.000
1506.0800, -89.858
1506.1000, -84.730
1506.1200, -82.323
1506.1400,-210.000
1506.1600, -85.978
1506.1800, -92.525
1506.2000, -85.352
1506.2200,-210.000
1506.2400,-210.000
1506.2600, -84.654
1506.2800, -81.939
1506.3000, -94.155
1506.3200,-210.000
1506.3400, -89.932
1506.3600, -82.239
1506.3800,-210.000
1506.4000, -87.241
1506.4200, -86.403
1506.4400,-210.000
1506.4600,-210.000
1506.4800, -85.941
1506.5000, -83.227
1506.5200, -87.556
1506.5400,-210.000
1506.5600, -87.705
1506.5800, -87.832
1506.6000,-210.000
1506.6200, -87.143
1506.6400,-210.000
1506.6600, -84.264
1506.6800,-210.000
1506.7000, -86.660
1506.7200,-100.263
1506.7400, -94.927
1506.7600, -90.363
1506.7800, -84.258
1506.8000,-210.000
1506.8200,-210.000
1506.8400, -85.712
1506.8600, -83.821
1506.8800,-210.000
1506.9000,-210.000
1506.9200, -88.712
1506.9400,-210.000
1506.9600, -81.956
1506.9800, -91.406
1507.0000,-210.000
1507.0200, -86.113
1507.0400,-210.000
1507.0600, -86.552
1507.0800, -85.165
1507.1000,-210.000
1507.1200, -83.884
1507.1400,-210.000
1507.1600,-210.000
1507.1800, -83.457
1507.2000, -83.175
1507.2200, -88.945
1507.2400, -82.631
1507.2600, -87.451
1507.2800,-210.000
1507.3000, -85.194
1507.3200, -83.243
1507.3400,-210.000
1507.3600,-210.000
1507.3800, -90.842
1507.4000, -83.667
1507.4200,-210.000
1507.4400, -84.004
1507.4600, -89.187
1507.4800, -85.995
1507.5000, -86.916
1507.5200, -90.679
1507.5400, -87.447
1507.5600, -86.318
1507.5800, -86.369
1507.6000, -90.319
1507.6200, -85.987
1507.6400, -88.320
1507.6600, -84.384
1507.6800,-210.000
1507.7000, -87.297
1507.7200, -86.172
1507.7400, -91.398
1507.7600, -86.695
1507.7800, -84.277
1507.8000, -89.971
1507.8200, -93.753
1507.8400, -85.178
1507.8600, -85.939
1507.8800, -90.650
1507.9000, -84.115
1507.9200, -87.059
1507.9400,-210.000
1507.9600, -87.085
1507.9800, -87.498
1508.0000,-210.000
1508.0200, -86.306
1508.0400, -85.788
1508.0600,-210.000
1508.0800,-210.000
1508.1000, -95.670
1508.1200, -92.611
1508.1400,-210.000
1508.1600, -85.491
1508.1800, -88.082
1508.2000, -88.405
1508.2200,-210.000
1508.2400, -90.608
1508.2600, -93.967
1508.2800, -98.327
1508.3000, -85.564
1508.3200, -95.772
1508.3400,-210.000
1508.3600, -82.682
1508.3800, -83.539
1508.4000, -92.571
1508.4200,-210.000
1508.4400,-210.000
1508.4600, -88.971
1508.4800, -85.105
1508.5000, -83.687
1508.5200,-210.000
1508.5400, -90.867
1508.5600, -92.571
1508.5800,-210.000
1508.6000,-111.029
1508.6200, -85.109
1508.6400,-210.000
1508.6600,-210.000
1508.6800, -80.912
1508.7000,-210.000
1508.7200, -86.427
1508.7400,-210.000
1508.7600, -83.972
1508.7800, -87.557
1508.8000, -83.107
1508.8200, -89.750
1508.8400, -83.283
1508.8600,-210.000
1508.8800, -84.473
1508.9000, -83.583
1508.9200,-210.000
1508.9400, -85.156
1508.9600,-210.000
1508.9800, -84.804
1509.0000, -90.429
1509.0200, -83.493
1509.0400,-210.000
1509.0600, -84.271
1509.0800,-210.000
1509.1000,-210.000
1509.1200,-210.000
1509.1400, -83.966
1509.1600, -86.959
1509.1800, -85.117
1509.2000, -83.522
1509.2200,-210.000
1509.2400,-210.000
1509.2600, -85.244
1509.2800, -85.448
1509.3000,-210.000
1509.3200,-210.000
1509.3400, -83.464
1509.3600,-210.000
1509.3800, -81.025
1509.4000, -98.297
1509.4200,-210.000
1509.4400, -84.132
1509.4600, -89.489
1509.4800, -82.591
1509.5000, -94.957
1509.5200,-210.000
1509.5400, -88.911
1509.5600,-210.000
1509.5800, -87.630
1509.6000,-210.000
1509.6200, -83.793
1509.6400,-210.000
1509.6600,-210.000
1509.6800, -89.668
1509.7000, -92.322
1509.7200, -88.144
1509.7400, -96.046
1509.7600, -86.208
1509.7800, -85.815
1509.8000,-210.000
1509.8200, -98.331
1509.8400,-210.000
1509.8600, -88.464
1509.8800, -88.448
1509.9000, -90.229
1509.9200, -84.285
1509.9400, -86.267
1509.9600, -90.919
1509.9800, -85.342
1510.0000, -84.762
1510.0200, -84.952
1510.0400, -86.513
1510.0600, -84.097
1510.0800,-210.000
1510.1000, -86.303
1510.1200, -89.995
1510.1400, -88.423
1510.1600,-210.000
1510.1800, -87.151
1510.2000, -95.113
1510.2200,-210.000
1510.2400, -85.427
1510.2600, -81.729
1510.2800, -96.182
1510.3000, -87.057
1510.3200, -89.297
1510.3400, -88.165
1510.3600, -84.166
1510.3800, -84.355
1510.4000,-210.000
1510.4200, -82.452
1510.4400, -89.405
1510.4600, -86.523
1510.4800, -87.128
1510.5000,-210.000
1510.5200,-210.000
1510.5400, -89.468
1510.5600,-210.000
1510.5800, -83.048
1510.6000, -85.354
1510.6200,-210.000
1510.6400, -91.037
1510.6600, -86.303
1510.6800, -84.708
1510.7000,-210.000
1510.7200,-210.000
1510.7400,-210.000
1510.7600, -81.101
1510.7800,-210.000
1510.8000,-210.000
1510.8200, -82.940
1510.8400,-210.000
1510.8600,-210.000
1510.8800,-210.000
1510.9000,-210.000
1510.9200, -82.950
1510.9400, -82.969
1510.9600, -89.222
1510.9800,-210.000
1511.0000, -84.440
1511.0200,-210.000
1511.0400, -91.442
1511.0600, -86.851
1511.0800, -89.681
1511.1000, -91.162
1511.1200, -86.334
1511.1400,-210.000
1511.1600, -83.607
1511.1800, -87.034
1511.2000, -86.828
1511.2200,-210.000
1511.2400, -88.901
1511.2600,-210.000
1511.2800, -83.392
1511.3000,-210.000
1511.3200,-210.000
1511.3400,-210.000
1511.3600, -85.197
1511.3800, -82.154
1511.4000, -89.351
1511.4200, -83.584
1511.4400, -90.668
1511.4600, -90.391
1511.4800,-210.000
1511.5000, -85.881
1511.5200,-210.000
1511.5400,-210.000
1511.5600, -82.691
1511.5800,-210.000
1511.6000, -81.036
1511.6200,-210.000
1511.6400,-210.000
1511.6600, -84.915
1511.6800, -88.894
1511.7000, -86.671
1511.7200, -92.318
1511.7400, -90.056
1511.7600, -94.986
1511.7800, -85.367
1511.8000, -85.797
1511.8200, -82.374
1511.8400,-210.000
1511.8600, -83.468
1511.8800,-210.000
1511.9000, -85.752
1511.9200, -83.197
1511.9400,-210.000
1511.9600, -87.670
1511.9800,-210.000
1512.0000,-210.000
1512.0200, -88.492
1512.0400, -85.451
1512.0600,-210.000
1512.0800, -84.628
1512.1000, -88.691
1512.1200,-210.000
1512.1400, -83.575
1512.1600, -86.697
1512.1800,-210.000
1512.2000,-210.000
1512.2200, -83.211
1512.2400, -86.361
1512.2600, -93.539
1512.2800, -85.363
1512.3000,-210.000
1512.3200,-210.000
1512.3400, -92.129
1512.3600, -83.617
1512.3800,-210.000
1512.4000,-210.000
1512.4200, -85.434
1512.4400,-210.000
1512.4600, -86.069
1512.4800, -84.394
1512.5000, -86.681
1512.5200, -83.532
1512.5400,-210.000
1512.5600, -82.640
1512.5800,-210.000
1512.6000,-210.000
1512.6200, -90.251
1512.6400,-210.000
1512.6600, -81.733
1512.6800, -82.669
1512.7000,-210.000
1512.7200,-210.000
1512.7400,-210.000
1512.7600,-210.000
1512.7800, -84.045
1512.8000, -84.328
1512.8200, -83.098
1512.8400,-210.000
1512.8600, -86.989
1512.8800,-210.000
1512.9000, -85.072
1512.9200, -83.857
1512.9400,-210.000
1512.9600, -81.408
1512.9800, -85.716
1513.0000,-210.000
1513.0200, -85.764
1513.0400, -83.703
1513.0600,-100.086
1513.0800,-210.000
1513.1000, -87.935
1513.1200, -82.804
1513.1400, -90.274
1513.1600,-210.000
1513.1800,-210.000
1513.2000, -85.324
1513.2200,-210.000
1513.2400, -82.100
1513.2600, -92.706
1513.2800, -87.057
1513.3000,-210.000
1513.3200, -97.351
1513.3400, -91.247
1513.3600,-210.000
1513.3800, -81.650
1513.4000,-210.000
1513.4200, -85.704
1513.4400, -93.058
1513.4600,-210.000
1513.4800, -85.225
1513.5000,-210.000
1513.5200, -88.256
1513.5400, -92.649
1513.5600, -92.696
1513.5800,-210.000
1513.6000, -87.192
1513.6200, -87.035
1513.6400,-210.000
1513.6600, -85.646
1513.6800,-210.000
1513.7000, -89.419
1513.7200, -88.363
1513.7400, -87.927
1513.7600, -82.095
1513.7800,-210.000
1513.8000, -85.583
1513.8200,-210.000
1513.8400, -82.640
1513.8600,-210.000
1513.8800, -88.021
1513.9000, -86.747
1513.9200,-210.000
1513.9400, -91.464
1513.9600, -94.296
1513.9800, -82.969
1514.0000, -86.604
1514.0200, -88.229
1514.0400, -89.233
1514.0600,-210.000
1514.0800, -81.802
1514.1000, -93.559
1514.1200, -83.465
1514.1400, -86.858
1514.1600, -88.349
1514.1800, -90.669
1514.2000, -84.807
1514.2200,-210.000
1514.2400, -91.817
1514.2600, -81.268
1514.2800,-210.000
1514.3000, -85.446
1514.3200, -84.063
1514.3400,-210.000
1514.3600, -83.963
1514.3800, -87.169
1514.4000,-210.000
1514.4200, -81.919
1514.4400,-210.000
1514.4600,-210.000
1514.4800,-210.000
1514.5000, -84.914
1514.5200,-210.000
1514.5400, -81.189
1514.5600,-210.000
1514.5800, -87.299
1514.6000,-210.000
1514.6200, -84.950
1514.6400, -83.193
1514.6600,-210.000
1514.6800, -93.415
1514.7000, -86.535
1514.7200,-210.000
1514.7400, -93.240
1514.7600, -82.064
1514.7800, -88.043
1514.8000, -87.870
1514.8200,-210.000
1514.8400, -85.456
1514.8600,-210.000
1514.8800, -92.714
1514.9000, -95.627
1514.9200, -84.898
1514.9400, -84.192
1514.9600,-210.000
1514.9800,-210.000
1515.0000, -87.932
1515.0200, -85.275
1515.0400, -94.920
1515.0600, -84.865
1515.0800,-210.000
1515.1000, -87.907
1515.1200, -86.501
1515.1400, -85.690
1515.1600,-210.000
1515.1800, -91.473
1515.2000, -86.501
1515.2200, -94.500
1515.2400, -91.732
1515.2600, -88.702
1515.2800,-210.000
1515.3000, -82.359
1515.3200,-210.000
1515.3400, -83.947
1515.3600,-210.000
1515.3800, -89.996
1515.4000, -81.839
1515.4200, -83.213
1515.4400,-210.000
1515.4600, -83.485
1515.4800, -89.757
1515.5000, -86.417
1515.5200, -87.204
1515.5400,-210.000
1515.5600, -82.619
1515.5800, -85.700
1515.6000, -84.016
1515.6200,-210.000
1515.6400,-210.000
1515.6600,-210.000
1515.6800, -85.045
1515.7000,-210.000
1515.7200, -94.176
1515.7400, -81.112
1515.7600,-210.000
1515.7800,-210.000
1515.8000, -89.278
1515.8200, -84.505
1515.8400,-210.000
1515.8600, -86.242
1515.8800,-210.000
1515.9000, -83.059
1515.9200, -84.470
1515.9400, -85.936
1515.9600, -87.247
1515.9800,-210.000
1516.0000, -85.220
1516.0200,-210.000
1516.0400, -85.595
1516.0600, -85.187
1516.0800, -86.860
1516.1000,-210.000
1516.1200,-210.000
1516.1400, -93.305
1516.1600, -81.462
1516.1800, -86.162
1516.2000,-210.000
1516.2200, -87.396
1516.2400, -86.445
1516.2600, -83.218
1516.2800,-210.000
1516.3000,-210.000
1516.3200, -95.237
1516.3400, -85.082
1516.3600,-210.000
1516.3800, -82.838
1516.4000,-210.000
1516.4200, -88.997
1516.4400, -83.067
1516.4600, -90.258
1516.4800, -92.062
1516.5000, -89.579
1516.5200, -86.288
1516.5400,-210.000
1516.5600,-210.000
1516.5800,-210.000
1516.6000, -89.010
1516.6200, -80.927
1516.6400, -86.869
1516.6600, -86.025
1516.6800, -85.184
1516.7000, -93.053
1516.7200,-210.000
1516.7400, -85.002
1516.7600, -93.768
1516.7800,-210.000
1516.8000, -88.652
1516.8200, -86.300
1516.8400,-210.000
1516.8600,-210.000
1516.8800, -81.073
1516.9000, -86.623
1516.9200, -92.254
1516.9400,-210.000
1516.9600, -82.287
1516.9800, -93.027
1517.0000, -90.847
1517.0200,-210.000
1517.0400, -80.831
1517.0600,-210.000
1517.0800, -91.441
1517.1000, -87.666
1517.1200, -95.345
1517.1400, -83.802
1517.1600, -86.837
1517.1800,-210.000
1517.2000, -83.537
1517.2200, -86.110
1517.2400,-210.000
1517.2600, -85.751
1517.2800,-210.000
1517.3000, -87.954
1517.3200, -81.116
1517.3400, -83.943
1517.3600,-210.000
1517.3800,-210.000
1517.4000, -81.990
1517.4200,-210.000
1517.4400, -91.026
1517.4600,-210.000
1517.4800, -84.878
1517.5000, -84.145
1517.5200,-210.000
1517.5400, -94.175
1517.5600,-210.000
1517.5800, -87.109
1517.6000,-210.000
1517.6200, -84.961
1517.6400,-210.000
1517.6600, -94.862
1517.6800,-210.000
1517.7000, -84.835
1517.7200,-102.018
1517.7400, -92.855
1517.7600,-210.000
1517.7800,-210.000
1517.8000, -82.840
1517.8200,-210.000
1517.8400, -87.205
1517.8600, -86.609
1517.8800,-210.000
1517.9000, -85.033
1517.9200, -88.705
1517.9400, -85.540
1517.9600,-210.000
1517.9800, -83.755
1518.0000,-210.000
1518.0200, -83.031
1518.0400,-210.000
1518.0600,-210.000
1518.0800, -85.574
1518.1000, -87.165
1518.1200, -87.366
1518.1400, -96.863
1518.1600, -93.155
1518.1800, -89.071
1518.2000, -88.663
1518.2200, -88.250
1518.2400,-210.000
1518.2600,-210.000
1518.2800, -85.900
1518.3000,-210.000
1518.3200,-210.000
1518.3400, -89.774
1518.3600, -84.498
1518.3800,-210.000
1518.4000, -91.004
1518.4200, -84.128
1518.4400, -84.018
1518.4600,-210.000
1518.4800, -82.643
1518.5000, -91.739
1518.5200,-210.000
1518.5400, -82.647
1518.5600, -90.940
1518.5800, -87.292
1518.6000, -85.477
1518.6200,-210.000
1518.6400, -82.063
1518.6600,-210.000
1518.6800, -83.990
1518.7000, -88.388
1518.7200, -84.828
1518.7400,-210.000
1518.7600, -85.690
1518.7800, -84.911
1518.8000,-210.000
1518.8200, -81.977
1518.8400,-210.000
1518.8600, -85.700
1518.8800, -81.650
1518.9000, -92.260
1518.9200, -85.797
1518.9400,-210.000
1518.9600, -85.550
1518.9800, -90.355
1519.0000,-210.000
1519.0200, -89.125
1519.0400,-210.000
1519.0600, -88.364
1519.0800, -88.783
1519.1000,-210.000
1519.1200, -83.027
1519.1400, -87.520
1519.1600, -84.086
1519.1800, -89.470
1519.2000, -85.697
1519.2200, -86.599
1519.2400, -90.618
1519.2600, -87.828
1519.2800, -91.351
1519.3000, -86.559
1519.3200,-210.000
1519.3400, -99.756
1519.3600, -87.695
1519.3800,-210.000
1519.4000, -84.092
1519.4200,-210.000
1519.4400,-210.000
1519.4600,-210.000
1519.4800, -83.589
1519.5000, -87.443
1519.5200, -93.958
1519.5400,-210.000
1519.5600,-108.375
1519.5800, -95.775
1519.6000, -86.547
1519.6200,-210.000
1519.6400, -88.067
1519.6600,-210.000
1519.6800,-210.000
1519.7000, -86.559
1519.7200,-210.000
1519.7400, -91.050
1519.7600,-210.000
1519.7800, -81.770
1519.8000,-210.000
1519.8200,-210.000
1519.8400,-210.000
1519.8600, -83.345
1519.8800, -91.019
1519.9000,-210.000
1519.9200, -84.917
1519.9400, -88.054
1519.9600,-210.000
1519.9800, -93.422
1520.0000,-210.000
1520.0200, -84.621
1520.0400, -89.055
1520.0600,-210.000
1520.0800,-210.000
1520.1000, -90.635
1520.1200, -83.418
1520.1400,-210.000
1520.1600,-210.000
1520.1800, -86.302
1520.2000, -87.183
1520.2200, -87.653
1520.2400, -85.483
1520.2600,-210.000
1520.2800, -83.019
1520.3000,-210.000
1520.3200, -83.312
1520.3400, -85.601
1520.3600, -83.718
1520.3800,-210.000
1520.4000, -83.432
1520.4200,-210.000
1520.4400, -82.067
1520.4600, -87.181
1520.4800,-210.000
1520.5000,-210.000
1520.5200, -89.488
1520.5400,-210.000
1520.5600, -83.875
1520.5800, -84.764
1520.6000, -96.112
1520.6200,-210.000
