70BCSV 	
// AQ6370B OPTICAL SPECTRUM ANALYZER //                 
25
"CTRWL",1550.000000
"SPAN", 100.000000
"START WL",1500.000000
"STOP WL",1600.000000
"WLFREQ", 0
"REFL",-26.7
"LSCL", 5.0
"RESLN",0.100
"AVG",   1
"SMPLAUTO",      0
"SMPL",       5001
"SMPLINTVL",0.0200
"HIGH1"
"MEAS"
"LSUNT",0
"NMSKH","OFF"
"RESCOR",0
"RESPARM", 9050
"FREQPARM", 9050






"[TRACE DATA]"
1500.0000, -97.575
1500.0200, -93.090
1500.0400, -86.455
1500.0600, -92.542
1500.0800, -94.668
1500.1000, -86.144
1500.1200,-210.000
1500.1400,-210.000
1500.1600, -87.185
1500.1800,-210.000
1500.2000, -84.913
1500.2200,-210.000
1500.2400,-210.000
1500.2600, -87.166
1500.2800,-210.000
1500.3000,-210.000
1500.3200, -81.938
1500.3400,-210.000
1500.3600,-210.000
1500.3800, -81.625
1500.4000,-210.000
1500.4200,-210.000
1500.4400, -89.849
1500.4600,-210.000
1500.4800, -81.763
1500.5000,-210.000
1500.5200,-210.000
1500.5400, -82.062
1500.5600,-210.000
1500.5800,-210.000
1500.6000,-210.000
1500.6200,-210.000
1500.6400,-210.000
1500.6600, -88.996
1500.6800, -84.423
1500.7000, -84.677
1500.7200, -85.378
1500.7400,-210.000
1500.7600, -87.212
1500.7800, -85.147
1500.8000,-210.000
1500.8200,-210.000
1500.8400,-210.000
1500.8600,-210.000
1500.8800, -89.391
1500.9000,-210.000
1500.9200,-210.000
1500.9400, -86.530
1500.9600, -89.363
1500.9800,-103.315
1501.0000, -86.580
1501.0200, -88.653
1501.0400,-210.000
1501.0600, -84.499
1501.0800, -83.543
1501.1000, -85.322
1501.1200,-210.000
1501.1400,-210.000
1501.1600, -81.708
1501.1800,-210.000
1501.2000,-210.000
1501.2200, -88.138
1501.2400, -82.719
1501.2600,-210.000
1501.2800,-210.000
1501.3000, -82.277
1501.3200,-210.000
1501.3400,-210.000
1501.3600, -83.392
1501.3800, -95.698
1501.4000,-210.000
1501.4200,-210.000
1501.4400,-210.000
1501.4600,-210.000
1501.4800, -84.095
1501.5000, -94.045
1501.5200,-210.000
1501.5400,-210.000
1501.5600, -83.180
1501.5800,-210.000
1501.6000, -86.827
1501.6200,-210.000
1501.6400,-210.000
1501.6600, -84.155
1501.6800, -83.437
1501.7000,-210.000
1501.7200, -84.334
1501.7400, -97.010
1501.7600,-210.000
1501.7800,-210.000
1501.8000, -85.408
1501.8200,-210.000
1501.8400,-210.000
1501.8600,-210.000
1501.8800, -83.712
1501.9000, -88.676
1501.9200, -83.165
1501.9400,-210.000
1501.9600,-210.000
1501.9800, -83.411
1502.0000, -98.489
1502.0200,-210.000
1502.0400,-210.000
1502.0600,-210.000
1502.0800, -85.183
1502.1000, -93.182
1502.1200, -85.850
1502.1400, -83.304
1502.1600,-210.000
1502.1800, -87.834
1502.2000,-210.000
1502.2200, -84.710
1502.2400, -90.200
1502.2600,-210.000
1502.2800,-210.000
1502.3000, -92.233
1502.3200, -84.314
1502.3400,-210.000
1502.3600,-210.000
1502.3800, -82.229
1502.4000,-210.000
1502.4200, -85.198
1502.4400, -85.526
1502.4600, -92.967
1502.4800, -84.200
1502.5000, -85.219
1502.5200,-210.000
1502.5400, -82.183
1502.5600,-210.000
1502.5800, -89.419
1502.6000, -87.062
1502.6200, -88.690
1502.6400, -83.983
1502.6600,-210.000
1502.6800,-210.000
1502.7000, -86.401
1502.7200,-210.000
1502.7400, -87.195
1502.7600,-106.295
1502.7800, -82.919
1502.8000, -85.796
1502.8200, -87.578
1502.8400,-210.000
1502.8600, -86.363
1502.8800,-210.000
1502.9000,-210.000
1502.9200, -85.359
1502.9400, -92.715
1502.9600,-210.000
1502.9800, -87.722
1503.0000, -90.561
1503.0200,-210.000
1503.0400, -86.607
1503.0600,-210.000
1503.0800, -82.329
1503.1000,-210.000
1503.1200, -81.646
1503.1400, -86.469
1503.1600, -84.799
1503.1800,-210.000
1503.2000, -99.645
1503.2200, -86.717
1503.2400, -89.473
1503.2600,-210.000
1503.2800, -87.672
1503.3000,-210.000
1503.3200,-210.000
1503.3400, -84.169
1503.3600, -86.038
1503.3800,-210.000
1503.4000,-210.000
1503.4200, -90.175
1503.4400,-210.000
1503.4600, -84.061
1503.4800,-210.000
1503.5000,-210.000
1503.5200,-210.000
1503.5400,-210.000
1503.5600,-112.347
1503.5800, -88.073
1503.6000, -85.314
1503.6200,-210.000
1503.6400, -85.127
1503.6600,-210.000
1503.6800, -84.462
1503.7000, -88.947
1503.7200,-210.000
1503.7400,-210.000
1503.7600, -95.260
1503.7800,-210.000
1503.8000, -88.551
1503.8200, -87.315
1503.8400,-210.000
1503.8600, -84.769
1503.8800,-210.000
1503.9000,-210.000
1503.9200, -82.069
1503.9400,-210.000
1503.9600, -96.371
1503.9800, -89.284
1504.0000,-210.000
1504.0200, -84.201
1504.0400, -84.435
1504.0600,-210.000
1504.0800,-210.000
1504.1000, -91.925
1504.1200, -86.566
1504.1400, -84.334
1504.1600,-210.000
1504.1800, -84.269
1504.2000,-210.000
1504.2200, -87.170
1504.2400, -85.605
1504.2600,-210.000
1504.2800,-107.153
1504.3000, -86.238
1504.3200,-210.000
1504.3400, -84.217
1504.3600, -94.646
1504.3800, -93.233
1504.4000,-210.000
1504.4200, -87.292
1504.4400,-210.000
1504.4600, -84.290
1504.4800,-210.000
1504.5000,-210.000
1504.5200, -83.597
1504.5400,-101.500
1504.5600, -82.651
1504.5800,-210.000
1504.6000, -91.427
1504.6200, -93.979
1504.6400,-100.819
1504.6600,-210.000
1504.6800, -90.949
1504.7000, -92.058
1504.7200,-210.000
1504.7400, -89.760
1504.7600,-210.000
1504.7800, -86.989
1504.8000, -88.340
1504.8200, -87.833
1504.8400, -85.528
1504.8600, -83.824
1504.8800, -84.800
1504.9000,-210.000
1504.9200,-210.000
1504.9400, -91.086
1504.9600, -89.791
1504.9800,-210.000
1505.0000, -86.006
1505.0200,-210.000
1505.0400, -87.246
1505.0600, -97.742
1505.0800,-103.334
1505.1000, -90.728
1505.1200, -86.178
1505.1400, -91.021
1505.1600,-210.000
1505.1800, -80.695
1505.2000,-210.000
1505.2200,-210.000
1505.2400, -92.237
1505.2600, -88.297
1505.2800, -97.224
1505.3000, -88.632
1505.3200, -87.402
1505.3400, -86.632
1505.3600, -85.875
1505.3800,-210.000
1505.4000,-210.000
1505.4200, -82.856
1505.4400,-210.000
1505.4600, -80.785
1505.4800,-210.000
1505.5000,-210.000
1505.5200,-210.000
1505.5400, -82.482
1505.5600, -87.736
1505.5800,-210.000
1505.6000, -84.740
1505.6200, -89.605
1505.6400, -88.162
1505.6600,-210.000
1505.6800,-210.000
1505.7000, -85.582
1505.7200, -88.185
1505.7400, -80.475
1505.7600,-210.000
1505.7800, -85.104
1505.8000,-210.000
1505.8200, -84.114
1505.8400, -92.502
1505.8600,-210.000
1505.8800,-210.000
1505.9000, -89.954
1505.9200,-210.000
1505.9400, -88.177
1505.9600, -84.879
1505.9800, -83.867
1506.0000,-210.000
1506.0200, -83.986
1506.0400,-210.000
1506.0600,-210.000
1506.0800, -84.722
1506.1000,-210.000
1506.1200, -85.741
1506.1400,-210.000
1506.1600, -84.538
1506.1800, -83.475
1506.2000,-210.000
1506.2200, -87.684
1506.2400,-210.000
1506.2600,-210.000
1506.2800,-210.000
1506.3000, -86.925
1506.3200, -84.800
1506.3400, -81.953
1506.3600, -86.676
1506.3800,-210.000
1506.4000, -82.696
1506.4200, -90.151
1506.4400,-210.000
1506.4600, -92.989
1506.4800,-210.000
1506.5000, -82.740
1506.5200,-210.000
1506.5400, -89.719
1506.5600, -84.286
1506.5800, -99.640
1506.6000,-210.000
1506.6200, -85.717
1506.6400, -90.395
1506.6600, -87.146
1506.6800, -87.987
1506.7000,-210.000
1506.7200, -84.541
1506.7400,-210.000
1506.7600, -89.405
1506.7800,-210.000
1506.8000, -83.336
1506.8200, -86.029
1506.8400,-210.000
1506.8600, -82.350
1506.8800,-210.000
1506.9000,-210.000
1506.9200, -88.284
1506.9400,-210.000
1506.9600, -92.939
1506.9800, -90.872
1507.0000,-210.000
1507.0200, -84.459
1507.0400,-210.000
1507.0600,-210.000
1507.0800, -84.992
1507.1000, -89.711
1507.1200,-210.000
1507.1400, -86.907
1507.1600,-210.000
1507.1800, -90.380
1507.2000, -85.265
1507.2200, -92.631
1507.2400,-210.000
1507.2600,-210.000
1507.2800,-210.000
1507.3000, -87.689
1507.3200,-100.975
1507.3400, -87.302
1507.3600,-210.000
1507.3800, -80.691
1507.4000, -85.220
1507.4200,-210.000
1507.4400, -85.704
1507.4600,-210.000
1507.4800,-210.000
1507.5000, -87.854
1507.5200,-210.000
1507.5400, -83.469
1507.5600,-210.000
1507.5800, -99.069
1507.6000, -93.572
1507.6200,-210.000
1507.6400, -86.488
1507.6600,-210.000
1507.6800,-210.000
1507.7000, -86.960
1507.7200, -93.030
1507.7400, -85.704
1507.7600, -87.471
1507.7800,-210.000
1507.8000, -88.167
1507.8200,-210.000
1507.8400,-210.000
1507.8600, -84.699
1507.8800, -91.643
1507.9000,-109.309
1507.9200,-210.000
1507.9400, -89.380
1507.9600, -83.399
1507.9800, -85.107
1508.0000, -97.787
1508.0200, -88.851
1508.0400, -86.097
1508.0600,-210.000
1508.0800, -85.055
1508.1000, -92.840
1508.1200, -84.585
1508.1400,-210.000
1508.1600, -84.071
1508.1800, -90.074
1508.2000, -89.930
1508.2200,-210.000
1508.2400, -84.891
1508.2600, -83.654
1508.2800,-210.000
1508.3000, -87.641
1508.3200,-210.000
1508.3400,-210.000
1508.3600, -93.196
1508.3800, -85.789
1508.4000, -83.098
1508.4200,-210.000
1508.4400, -85.605
1508.4600,-210.000
1508.4800,-210.000
1508.5000, -89.207
1508.5200, -87.654
1508.5400, -88.547
1508.5600, -93.748
1508.5800,-210.000
1508.6000, -84.103
1508.6200,-210.000
1508.6400, -89.237
1508.6600, -84.841
1508.6800, -83.465
1508.7000,-210.000
1508.7200, -87.572
1508.7400,-210.000
1508.7600, -87.673
1508.7800, -88.508
1508.8000, -91.146
1508.8200,-210.000
1508.8400,-210.000
1508.8600,-210.000
1508.8800,-102.461
1508.9000, -83.459
1508.9200, -84.679
1508.9400,-210.000
1508.9600, -85.698
1508.9800,-210.000
1509.0000, -87.975
1509.0200, -83.355
1509.0400, -88.235
1509.0600, -85.147
1509.0800,-210.000
1509.1000,-210.000
1509.1200, -85.598
1509.1400, -82.744
1509.1600, -89.023
1509.1800,-210.000
1509.2000,-210.000
1509.2200, -82.144
1509.2400,-210.000
1509.2600, -92.491
1509.2800, -87.471
1509.3000,-210.000
1509.3200, -92.316
1509.3400, -87.468
1509.3600, -90.190
1509.3800, -86.444
1509.4000,-210.000
1509.4200, -85.745
1509.4400,-210.000
1509.4600,-210.000
1509.4800,-210.000
1509.5000, -90.557
1509.5200, -85.038
1509.5400, -87.223
1509.5600, -86.278
1509.5800,-210.000
1509.6000, -83.879
1509.6200,-210.000
1509.6400,-210.000
1509.6600,-210.000
1509.6800,-210.000
1509.7000, -82.643
1509.7200,-210.000
1509.7400, -92.282
1509.7600, -86.307
1509.7800,-210.000
1509.8000, -85.241
1509.8200, -85.734
1509.8400, -87.753
1509.8600, -85.219
1509.8800, -85.622
1509.9000, -85.813
1509.9200, -83.335
1509.9400,-210.000
1509.9600, -84.355
1509.9800, -85.161
1510.0000, -88.094
1510.0200, -88.201
1510.0400,-210.000
1510.0600, -84.562
1510.0800,-210.000
1510.1000, -85.443
1510.1200,-210.000
1510.1400,-210.000
1510.1600,-210.000
1510.1800, -88.442
1510.2000, -84.759
1510.2200,-210.000
1510.2400, -89.288
1510.2600,-210.000
1510.2800,-210.000
1510.3000, -84.902
1510.3200,-210.000
1510.3400, -85.808
1510.3600, -86.444
1510.3800, -95.934
1510.4000, -84.283
1510.4200, -84.448
1510.4400, -85.195
1510.4600, -85.278
1510.4800, -93.437
1510.5000, -89.605
1510.5200,-210.000
1510.5400, -88.010
1510.5600,-210.000
1510.5800, -85.261
1510.6000, -96.161
1510.6200,-210.000
1510.6400, -89.540
1510.6600, -88.493
1510.6800, -84.402
1510.7000,-210.000
1510.7200, -85.398
1510.7400, -87.348
1510.7600, -94.206
1510.7800, -86.497
1510.8000,-210.000
1510.8200,-210.000
1510.8400, -87.130
1510.8600, -81.755
1510.8800,-210.000
1510.9000, -85.057
1510.9200, -83.127
1510.9400,-210.000
1510.9600,-210.000
1510.9800, -82.372
1511.0000, -85.296
1511.0200, -87.099
1511.0400,-210.000
1511.0600,-210.000
1511.0800, -85.438
1511.1000,-210.000
1511.1200, -82.214
1511.1400,-124.318
1511.1600,-210.000
1511.1800,-210.000
1511.2000, -87.950
1511.2200, -80.187
1511.2400,-210.000
1511.2600, -83.579
1511.2800, -92.897
1511.3000,-210.000
1511.3200,-210.000
1511.3400, -95.042
1511.3600, -84.087
1511.3800, -85.075
1511.4000,-210.000
1511.4200, -88.321
1511.4400, -85.788
1511.4600, -88.070
1511.4800,-210.000
1511.5000, -84.908
1511.5200, -83.446
1511.5400,-210.000
1511.5600,-210.000
1511.5800,-210.000
1511.6000, -93.079
1511.6200, -91.367
1511.6400, -88.536
1511.6600, -83.769
1511.6800,-210.000
1511.7000, -82.666
1511.7200,-210.000
1511.7400, -95.929
1511.7600, -90.209
1511.7800, -85.856
1511.8000, -97.004
1511.8200,-210.000
1511.8400,-210.000
1511.8600, -86.206
1511.8800, -85.119
1511.9000, -86.300
1511.9200,-210.000
1511.9400, -85.115
1511.9600, -89.485
1511.9800, -89.529
1512.0000,-210.000
1512.0200, -83.997
1512.0400,-210.000
1512.0600,-210.000
1512.0800, -84.622
1512.1000, -90.009
1512.1200,-210.000
1512.1400, -85.913
1512.1600, -83.810
1512.1800, -86.190
1512.2000,-210.000
1512.2200, -87.775
1512.2400, -86.415
1512.2600,-210.000
1512.2800,-210.000
1512.3000, -85.650
1512.3200, -88.172
1512.3400, -86.339
1512.3600, -95.573
1512.3800, -92.696
1512.4000, -89.130
1512.4200, -93.536
1512.4400,-210.000
1512.4600,-210.000
1512.4800,-210.000
1512.5000, -82.964
1512.5200, -83.944
1512.5400, -83.435
1512.5600, -87.957
1512.5800,-210.000
1512.6000,-210.000
1512.6200,-210.000
1512.6400,-210.000
1512.6600, -87.315
1512.6800, -83.502
1512.7000, -84.287
1512.7200, -86.811
1512.7400,-210.000
1512.7600,-210.000
1512.7800, -94.735
1512.8000, -84.122
1512.8200, -83.173
1512.8400,-210.000
1512.8600, -86.841
1512.8800, -84.899
1512.9000, -88.887
1512.9200, -86.883
1512.9400,-210.000
1512.9600, -91.497
1512.9800, -94.390
1513.0000, -88.017
1513.0200,-210.000
1513.0400, -85.441
1513.0600,-210.000
1513.0800, -85.212
1513.1000, -89.367
1513.1200,-210.000
1513.1400, -89.129
1513.1600, -82.532
1513.1800, -86.572
1513.2000, -89.310
1513.2200, -83.742
1513.2400,-210.000
1513.2600, -88.375
1513.2800, -82.911
1513.3000, -96.126
1513.3200, -99.968
1513.3400, -90.830
1513.3600, -89.775
1513.3800, -91.318
1513.4000, -95.878
1513.4200,-210.000
1513.4400, -83.365
1513.4600,-210.000
1513.4800, -81.314
1513.5000, -92.719
1513.5200, -84.109
1513.5400,-210.000
1513.5600,-210.000
1513.5800, -82.578
1513.6000,-210.000
1513.6200, -85.209
1513.6400,-210.000
1513.6600,-210.000
1513.6800, -89.291
1513.7000, -82.938
1513.7200,-210.000
1513.7400,-210.000
1513.7600, -84.685
1513.7800, -88.207
1513.8000,-210.000
1513.8200, -88.461
1513.8400, -85.684
1513.8600, -82.927
1513.8800,-210.000
1513.9000,-102.087
1513.9200, -84.197
1513.9400, -89.233
1513.9600,-210.000
1513.9800, -96.401
1514.0000,-210.000
1514.0200, -84.008
1514.0400, -88.894
1514.0600, -86.004
1514.0800, -87.233
1514.1000, -87.411
1514.1200,-210.000
1514.1400, -86.601
1514.1600, -88.415
1514.1800, -83.281
1514.2000,-210.000
1514.2200,-210.000
1514.2400, -83.488
1514.2600,-210.000
1514.2800,-210.000
1514.3000, -83.521
1514.3200,-210.000
1514.3400, -81.258
1514.3600, -87.337
1514.3800, -93.567
1514.4000, -83.450
1514.4200,-210.000
1514.4400, -85.729
1514.4600,-210.000
1514.4800, -88.353
1514.5000, -83.684
1514.5200,-210.000
1514.5400, -95.318
1514.5600, -82.187
1514.5800,-101.608
1514.6000,-210.000
1514.6200,-210.000
1514.6400,-210.000
1514.6600, -90.078
1514.6800, -86.019
1514.7000,-210.000
1514.7200, -82.764
1514.7400, -82.550
1514.7600,-210.000
1514.7800,-210.000
1514.8000, -81.345
1514.8200,-210.000
1514.8400, -87.796
1514.8600,-210.000
1514.8800, -88.160
1514.9000,-210.000
1514.9200,-210.000
1514.9400, -93.073
1514.9600,-210.000
1514.9800, -82.833
1515.0000,-210.000
1515.0200, -82.813
1515.0400,-210.000
1515.0600,-210.000
1515.0800,-210.000
1515.1000, -82.382
1515.1200, -97.027
1515.1400, -84.459
1515.1600, -89.314
1515.1800, -87.891
1515.2000,-210.000
1515.2200, -82.035
1515.2400, -83.238
1515.2600,-210.000
1515.2800, -84.777
1515.3000, -81.533
1515.3200,-210.000
1515.3400, -80.943
1515.3600,-210.000
1515.3800, -84.832
1515.4000, -85.224
1515.4200,-210.000
1515.4400, -97.817
1515.4600, -86.658
1515.4800, -85.855
1515.5000, -81.722
1515.5200,-210.000
1515.5400, -89.868
1515.5600, -83.847
1515.5800, -84.513
1515.6000, -86.138
1515.6200,-210.000
1515.6400, -93.791
1515.6600,-210.000
1515.6800, -85.836
1515.7000,-210.000
1515.7200, -83.976
1515.7400, -91.386
1515.7600, -85.723
1515.7800,-210.000
1515.8000,-210.000
1515.8200, -80.900
1515.8400,-210.000
1515.8600,-210.000
1515.8800, -82.722
1515.9000, -85.497
1515.9200,-210.000
1515.9400, -85.628
1515.9600, -84.433
1515.9800,-210.000
1516.0000, -90.037
1516.0200, -85.117
1516.0400, -87.433
1516.0600,-210.000
1516.0800, -87.823
1516.1000, -84.936
1516.1200,-210.000
1516.1400, -83.682
1516.1600,-210.000
1516.1800, -84.326
1516.2000,-210.000
1516.2200,-210.000
1516.2400,-210.000
1516.2600, -84.042
1516.2800, -85.680
1516.3000, -87.919
1516.3200, -84.171
1516.3400, -90.885
1516.3600, -81.874
1516.3800,-210.000
1516.4000,-210.000
1516.4200, -97.537
1516.4400, -84.644
1516.4600, -84.289
1516.4800,-210.000
1516.5000, -88.345
1516.5200, -94.724
1516.5400,-210.000
1516.5600,-210.000
1516.5800, -83.772
1516.6000, -92.174
1516.6200,-210.000
1516.6400, -86.386
1516.6600, -95.036
1516.6800,-210.000
1516.7000, -83.228
1516.7200,-210.000
1516.7400,-210.000
1516.7600,-210.000
1516.7800, -84.197
1516.8000,-210.000
1516.8200,-210.000
1516.8400, -82.992
1516.8600,-210.000
1516.8800,-210.000
1516.9000, -85.264
1516.9200,-210.000
1516.9400, -85.664
1516.9600, -86.843
1516.9800, -92.556
1517.0000, -87.437
1517.0200, -98.817
1517.0400,-210.000
1517.0600,-210.000
1517.0800,-210.000
1517.1000,-210.000
1517.1200, -80.458
1517.1400, -82.083
1517.1600,-210.000
1517.1800, -83.398
1517.2000, -85.366
1517.2200,-210.000
1517.2400, -86.429
1517.2600,-210.000
1517.2800, -91.539
1517.3000, -86.425
1517.3200, -81.638
1517.3400,-210.000
1517.3600, -89.460
1517.3800, -90.853
1517.4000, -91.123
1517.4200, -83.797
1517.4400,-210.000
1517.4600, -89.551
1517.4800,-107.222
1517.5000,-210.000
1517.5200, -83.773
1517.5400,-210.000
1517.5600,-210.000
1517.5800, -91.582
1517.6000, -92.122
1517.6200, -86.358
1517.6400,-210.000
1517.6600,-210.000
1517.6800, -91.934
1517.7000,-210.000
1517.7200,-210.000
1517.7400, -87.636
1517.7600, -87.322
1517.7800, -89.775
1517.8000, -84.092
1517.8200, -94.477
1517.8400,-210.000
1517.8600, -83.621
1517.8800,-210.000
1517.9000,-210.000
1517.9200,-210.000
1517.9400,-210.000
1517.9600, -85.975
1517.9800,-100.139
1518.0000,-210.000
1518.0200, -83.067
1518.0400,-210.000
1518.0600,-210.000
1518.0800, -88.799
1518.1000, -84.430
1518.1200, -83.973
1518.1400,-210.000
1518.1600, -86.859
1518.1800,-210.000
1518.2000, -84.414
1518.2200, -88.434
1518.2400,-210.000
1518.2600, -86.369
1518.2800, -88.800
1518.3000, -86.382
1518.3200, -93.805
1518.3400, -86.533
1518.3600, -85.173
1518.3800, -87.426
1518.4000,-210.000
1518.4200, -84.112
1518.4400, -85.066
1518.4600,-210.000
1518.4800, -83.919
1518.5000, -88.642
1518.5200,-210.000
1518.5400, -91.129
1518.5600, -82.334
1518.5800,-210.000
1518.6000, -84.652
1518.6200,-210.000
1518.6400, -82.879
1518.6600,-210.000
1518.6800, -84.750
1518.7000,-210.000
1518.7200, -91.488
1518.7400, -90.414
1518.7600, -87.193
1518.7800, -90.697
1518.8000, -82.511
1518.8200, -87.052
1518.8400,-210.000
1518.8600,-210.000
1518.8800, -95.369
1518.9000, -92.090
1518.9200, -87.823
1518.9400,-210.000
1518.9600, -85.114
1518.9800,-210.000
1519.0000,-210.000
1519.0200, -87.823
1519.0400, -89.125
1519.0600,-210.000
1519.0800, -86.529
1519.1000, -81.417
1519.1200, -84.868
1519.1400, -87.022
1519.1600,-210.000
1519.1800, -84.836
1519.2000,-210.000
1519.2200,-210.000
1519.2400, -85.383
1519.2600, -89.078
1519.2800,-210.000
1519.3000,-210.000
1519.3200, -84.633
1519.3400, -87.777
1519.3600,-210.000
1519.3800, -90.878
1519.4000, -90.757
1519.4200, -86.090
1519.4400, -88.742
1519.4600,-210.000
1519.4800, -87.226
1519.5000,-210.000
1519.5200, -90.213
1519.5400, -89.036
1519.5600, -96.200
1519.5800,-210.000
1519.6000,-210.000
1519.6200,-210.000
1519.6400,-210.000
1519.6600, -89.333
1519.6800,-210.000
1519.7000, -82.264
1519.7200,-210.000
1519.7400, -82.469
1519.7600, -84.041
1519.7800, -84.232
1519.8000, -84.734
1519.8200,-210.000
1519.8400, -86.930
1519.8600,-210.000
1519.8800,-210.000
1519.9000, -87.800
1519.9200, -84.157
1519.9400, -97.431
1519.9600, -85.479
1519.9800,-210.000
1520.0000, -83.163
1520.0200, -88.085
1520.0400, -88.289
1520.0600, -92.692
1520.0800, -87.134
1520.1000, -86.816
1520.1200,-111.343
1520.1400,-210.000
1520.1600, -86.870
1520.1800,-210.000
1520.2000, -84.447
1520.2200, -84.701
1520.2400, -93.339
1520.2600,-210.000
1520.2800,-210.000
1520.3000,-210.000
1520.3200, -83.252
1520.3400, -86.352
1520.3600,-210.000
1520.3800, -89.083
1520.4000, -83.712
1520.4200, -84.709
1520.4400,-210.000
1520.4600, -86.937
1520.4800, -86.295
1520.5000,-210.000
1520.5200,-210.000
1520.5400, -80.848
1520.5600, -89.096
1520.5800,-210.000
1520.6000, -89.368
1520.6200, -91.244
