70BCSV 	
// AQ6370B OPTICAL SPECTRUM ANALYZER //                 
25
"CTRWL",1550.000000
"SPAN", 100.000000
"START WL",1500.000000
"STOP WL",1600.000000
"WLFREQ", 0
"REFL",-46.2
"LSCL", 5.0
"RESLN",0.100
"AVG",   1
"SMPLAUTO",      0
"SMPL",       5001
"SMPLINTVL",0.0200
"HIGH1"
"MEAS"
"LSUNT",0
"NMSKH","OFF"
"RESCOR",0
"RESPARM", 9050
"FREQPARM", 9050






"[TRACE DATA]"
1500.0000, -66.312
1500.0200, -66.372
1500.0400, -66.418
1500.0600, -66.339
1500.0800, -66.346
1500.1000, -66.289
1500.1200, -66.365
1500.1400, -66.373
1500.1600, -66.362
1500.1800, -66.349
1500.2000, -66.407
1500.2200, -66.400
1500.2400, -66.328
1500.2600, -66.266
1500.2800, -66.425
1500.3000, -66.396
1500.3200, -66.376
1500.3400, -66.433
1500.3600, -66.373
1500.3800, -66.355
1500.4000, -66.449
1500.4200, -66.296
1500.4400, -66.422
1500.4600, -66.304
1500.4800, -66.341
1500.5000, -66.427
1500.5200, -66.331
1500.5400, -66.342
1500.5600, -66.318
1500.5800, -66.369
1500.6000, -66.353
1500.6200, -66.397
1500.6400, -66.328
1500.6600, -66.297
1500.6800, -66.423
1500.7000, -66.297
1500.7200, -66.312
1500.7400, -66.371
1500.7600, -66.316
1500.7800, -66.290
1500.8000, -66.225
1500.8200, -66.236
1500.8400, -66.253
1500.8600, -66.327
1500.8800, -66.285
1500.9000, -66.218
1500.9200, -66.266
1500.9400, -66.180
1500.9600, -66.231
1500.9800, -66.277
1501.0000, -66.200
1501.0200, -66.144
1501.0400, -66.198
1501.0600, -66.214
1501.0800, -66.214
1501.1000, -66.158
1501.1200, -66.173
1501.1400, -66.138
1501.1600, -66.198
1501.1800, -66.242
1501.2000, -66.130
1501.2200, -66.131
1501.2400, -66.197
1501.2600, -66.186
1501.2800, -66.166
1501.3000, -66.144
1501.3200, -66.240
1501.3400, -66.163
1501.3600, -66.248
1501.3800, -66.149
1501.4000, -66.152
1501.4200, -66.221
1501.4400, -66.205
1501.4600, -66.062
1501.4800, -66.196
1501.5000, -66.174
1501.5200, -66.069
1501.5400, -66.162
1501.5600, -66.160
1501.5800, -66.112
1501.6000, -66.198
1501.6200, -66.136
1501.6400, -66.181
1501.6600, -66.175
1501.6800, -66.118
1501.7000, -66.159
1501.7200, -66.075
1501.7400, -66.118
1501.7600, -66.097
1501.7800, -66.046
1501.8000, -66.049
1501.8200, -66.123
1501.8400, -66.056
1501.8600, -66.125
1501.8800, -66.098
1501.9000, -66.084
1501.9200, -66.062
1501.9400, -65.941
1501.9600, -66.011
1501.9800, -65.930
1502.0000, -66.043
1502.0200, -65.974
1502.0400, -65.975
1502.0600, -66.034
1502.0800, -66.070
1502.1000, -65.872
1502.1200, -65.997
1502.1400, -65.976
1502.1600, -65.950
1502.1800, -65.940
1502.2000, -65.995
1502.2200, -65.917
1502.2400, -66.015
1502.2600, -66.021
1502.2800, -65.955
1502.3000, -65.996
1502.3200, -65.986
1502.3400, -65.923
1502.3600, -65.968
1502.3800, -66.062
1502.4000, -65.935
1502.4200, -65.915
1502.4400, -65.961
1502.4600, -65.980
1502.4800, -65.852
1502.5000, -65.996
1502.5200, -65.932
1502.5400, -66.033
1502.5600, -65.895
1502.5800, -65.849
1502.6000, -65.923
1502.6200, -65.939
1502.6400, -65.914
1502.6600, -65.948
1502.6800, -65.863
1502.7000, -65.889
1502.7200, -65.820
1502.7400, -65.889
1502.7600, -65.831
1502.7800, -65.897
1502.8000, -65.832
1502.8200, -65.898
1502.8400, -65.776
1502.8600, -65.830
1502.8800, -65.912
1502.9000, -65.846
1502.9200, -65.731
1502.9400, -65.812
1502.9600, -65.830
1502.9800, -65.695
1503.0000, -65.730
1503.0200, -65.764
1503.0400, -65.752
1503.0600, -65.696
1503.0800, -65.773
1503.1000, -65.697
1503.1200, -65.722
1503.1400, -65.698
1503.1600, -65.728
1503.1800, -65.752
1503.2000, -65.727
1503.2200, -65.725
1503.2400, -65.662
1503.2600, -65.840
1503.2800, -65.721
1503.3000, -65.808
1503.3200, -65.691
1503.3400, -65.755
1503.3600, -65.706
1503.3800, -65.706
1503.4000, -65.704
1503.4200, -65.769
1503.4400, -65.678
1503.4600, -65.776
1503.4800, -65.843
1503.5000, -65.766
1503.5200, -65.695
1503.5400, -65.679
1503.5600, -65.652
1503.5800, -65.769
1503.6000, -65.758
1503.6200, -65.652
1503.6400, -65.622
1503.6600, -65.718
1503.6800, -65.695
1503.7000, -65.556
1503.7200, -65.626
1503.7400, -65.585
1503.7600, -65.594
1503.7800, -65.613
1503.8000, -65.617
1503.8200, -65.569
1503.8400, -65.640
1503.8600, -65.538
1503.8800, -65.555
1503.9000, -65.566
1503.9200, -65.463
1503.9400, -65.521
1503.9600, -65.574
1503.9800, -65.542
1504.0000, -65.563
1504.0200, -65.443
1504.0400, -65.501
1504.0600, -65.507
1504.0800, -65.494
1504.1000, -65.550
1504.1200, -65.546
1504.1400, -65.431
1504.1600, -65.578
1504.1800, -65.438
1504.2000, -65.518
1504.2200, -65.429
1504.2400, -65.606
1504.2600, -65.521
1504.2800, -65.434
1504.3000, -65.470
1504.3200, -65.570
1504.3400, -65.492
1504.3600, -65.391
1504.3800, -65.543
1504.4000, -65.436
1504.4200, -65.461
1504.4400, -65.505
1504.4600, -65.466
1504.4800, -65.373
1504.5000, -65.513
1504.5200, -65.469
1504.5400, -65.394
1504.5600, -65.506
1504.5800, -65.357
1504.6000, -65.441
1504.6200, -65.452
1504.6400, -65.387
1504.6600, -65.346
1504.6800, -65.350
1504.7000, -65.404
1504.7200, -65.383
1504.7400, -65.352
1504.7600, -65.346
1504.7800, -65.416
1504.8000, -65.317
1504.8200, -65.331
1504.8400, -65.287
1504.8600, -65.267
1504.8800, -65.294
1504.9000, -65.323
1504.9200, -65.205
1504.9400, -65.350
1504.9600, -65.165
1504.9800, -65.227
1505.0000, -65.314
1505.0200, -65.194
1505.0400, -65.284
1505.0600, -65.221
1505.0800, -65.254
1505.1000, -65.216
1505.1200, -65.286
1505.1400, -65.203
1505.1600, -65.235
1505.1800, -65.243
1505.2000, -65.353
1505.2200, -65.190
1505.2400, -65.370
1505.2600, -65.274
1505.2800, -65.206
1505.3000, -65.230
1505.3200, -65.237
1505.3400, -65.155
1505.3600, -65.267
1505.3800, -65.314
1505.4000, -65.269
1505.4200, -65.220
1505.4400, -65.102
1505.4600, -65.253
1505.4800, -65.240
1505.5000, -65.226
1505.5200, -65.102
1505.5400, -65.175
1505.5600, -65.138
1505.5800, -65.179
1505.6000, -65.146
1505.6200, -65.235
1505.6400, -65.007
1505.6600, -65.135
1505.6800, -65.074
1505.7000, -65.131
1505.7200, -65.093
1505.7400, -65.099
1505.7600, -65.086
1505.7800, -65.116
1505.8000, -65.086
1505.8200, -65.008
1505.8400, -64.974
1505.8600, -65.023
1505.8800, -64.988
1505.9000, -65.080
1505.9200, -64.935
1505.9400, -65.009
1505.9600, -64.978
1505.9800, -65.000
1506.0000, -64.951
1506.0200, -65.039
1506.0400, -65.053
1506.0600, -64.958
1506.0800, -64.942
1506.1000, -65.057
1506.1200, -64.949
1506.1400, -65.007
1506.1600, -65.057
1506.1800, -65.066
1506.2000, -65.033
1506.2200, -65.016
1506.2400, -64.951
1506.2600, -65.002
1506.2800, -64.928
1506.3000, -65.000
1506.3200, -65.017
1506.3400, -64.924
1506.3600, -64.960
1506.3800, -64.991
1506.4000, -64.962
1506.4200, -64.949
1506.4400, -64.937
1506.4600, -65.019
1506.4800, -64.947
1506.5000, -64.897
1506.5200, -64.904
1506.5400, -64.796
1506.5600, -64.857
1506.5800, -64.867
1506.6000, -64.876
1506.6200, -64.827
1506.6400, -64.946
1506.6600, -64.770
1506.6800, -64.910
1506.7000, -64.793
1506.7200, -64.898
1506.7400, -64.746
1506.7600, -64.766
1506.7800, -64.842
1506.8000, -64.733
1506.8200, -64.779
1506.8400, -64.810
1506.8600, -64.749
1506.8800, -64.732
1506.9000, -64.727
1506.9200, -64.722
1506.9400, -64.716
1506.9600, -64.777
1506.9800, -64.763
1507.0000, -64.769
1507.0200, -64.750
1507.0400, -64.787
1507.0600, -64.748
1507.0800, -64.751
1507.1000, -64.748
1507.1200, -64.775
1507.1400, -64.728
1507.1600, -64.757
1507.1800, -64.733
1507.2000, -64.756
1507.2200, -64.651
1507.2400, -64.736
1507.2600, -64.710
1507.2800, -64.709
1507.3000, -64.731
1507.3200, -64.770
1507.3400, -64.689
1507.3600, -64.725
1507.3800, -64.697
1507.4000, -64.742
1507.4200, -64.651
1507.4400, -64.647
1507.4600, -64.674
1507.4800, -64.638
1507.5000, -64.604
1507.5200, -64.649
1507.5400, -64.589
1507.5600, -64.618
1507.5800, -64.565
1507.6000, -64.575
1507.6200, -64.602
1507.6400, -64.599
1507.6600, -64.642
1507.6800, -64.551
1507.7000, -64.529
1507.7200, -64.597
1507.7400, -64.432
1507.7600, -64.549
1507.7800, -64.494
1507.8000, -64.519
1507.8200, -64.474
1507.8400, -64.454
1507.8600, -64.467
1507.8800, -64.411
1507.9000, -64.478
1507.9200, -64.474
1507.9400, -64.490
1507.9600, -64.483
1507.9800, -64.558
1508.0000, -64.451
1508.0200, -64.456
1508.0400, -64.527
1508.0600, -64.520
1508.0800, -64.474
1508.1000, -64.505
1508.1200, -64.509
1508.1400, -64.477
1508.1600, -64.482
1508.1800, -64.484
1508.2000, -64.403
1508.2200, -64.454
1508.2400, -64.459
1508.2600, -64.533
1508.2800, -64.425
1508.3000, -64.454
1508.3200, -64.467
1508.3400, -64.437
1508.3600, -64.462
1508.3800, -64.382
1508.4000, -64.378
1508.4200, -64.448
1508.4400, -64.365
1508.4600, -64.334
1508.4800, -64.419
1508.5000, -64.338
1508.5200, -64.344
1508.5400, -64.354
1508.5600, -64.298
1508.5800, -64.385
1508.6000, -64.346
1508.6200, -64.300
1508.6400, -64.275
1508.6600, -64.268
1508.6800, -64.307
1508.7000, -64.261
1508.7200, -64.220
1508.7400, -64.287
1508.7600, -64.239
1508.7800, -64.252
1508.8000, -64.214
1508.8200, -64.201
1508.8400, -64.227
1508.8600, -64.220
1508.8800, -64.223
1508.9000, -64.205
1508.9200, -64.242
1508.9400, -64.214
1508.9600, -64.246
1508.9800, -64.188
1509.0000, -64.235
1509.0200, -64.207
1509.0400, -64.251
1509.0600, -64.272
1509.0800, -64.268
1509.1000, -64.171
1509.1200, -64.247
1509.1400, -64.192
1509.1600, -64.169
1509.1800, -64.210
1509.2000, -64.248
1509.2200, -64.227
1509.2400, -64.234
1509.2600, -64.156
1509.2800, -64.174
1509.3000, -64.176
1509.3200, -64.157
1509.3400, -64.180
1509.3600, -64.145
1509.3800, -64.149
1509.4000, -64.149
1509.4200, -64.079
1509.4400, -64.114
1509.4600, -64.096
1509.4800, -64.070
1509.5000, -64.075
1509.5200, -64.104
1509.5400, -64.024
1509.5600, -64.072
1509.5800, -64.055
1509.6000, -64.015
1509.6200, -64.029
1509.6400, -63.991
1509.6600, -63.950
1509.6800, -63.997
1509.7000, -64.027
1509.7200, -63.985
1509.7400, -64.013
1509.7600, -63.915
1509.7800, -63.941
1509.8000, -63.962
1509.8200, -64.007
1509.8400, -63.970
1509.8600, -63.977
1509.8800, -63.968
1509.9000, -63.915
1509.9200, -63.954
1509.9400, -63.956
1509.9600, -63.977
1509.9800, -63.955
1510.0000, -63.972
1510.0200, -63.961
1510.0400, -63.967
1510.0600, -63.930
1510.0800, -63.942
1510.1000, -63.935
1510.1200, -63.906
1510.1400, -63.991
1510.1600, -63.960
1510.1800, -63.950
1510.2000, -63.937
1510.2200, -63.936
1510.2400, -63.919
1510.2600, -63.867
1510.2800, -63.898
1510.3000, -63.843
1510.3200, -63.852
1510.3400, -63.841
1510.3600, -63.803
1510.3800, -63.813
1510.4000, -63.816
1510.4200, -63.802
1510.4400, -63.780
1510.4600, -63.763
1510.4800, -63.750
1510.5000, -63.765
1510.5200, -63.744
1510.5400, -63.741
1510.5600, -63.718
1510.5800, -63.717
1510.6000, -63.639
1510.6200, -63.664
1510.6400, -63.672
1510.6600, -63.666
1510.6800, -63.610
1510.7000, -63.698
1510.7200, -63.631
1510.7400, -63.630
1510.7600, -63.630
1510.7800, -63.643
1510.8000, -63.663
1510.8200, -63.619
1510.8400, -63.701
1510.8600, -63.625
1510.8800, -63.635
1510.9000, -63.657
1510.9200, -63.628
1510.9400, -63.642
1510.9600, -63.649
1510.9800, -63.628
1511.0000, -63.661
1511.0200, -63.609
1511.0400, -63.616
1511.0600, -63.550
1511.0800, -63.589
1511.1000, -63.612
1511.1200, -63.594
1511.1400, -63.605
1511.1600, -63.591
1511.1800, -63.586
1511.2000, -63.558
1511.2200, -63.524
1511.2400, -63.526
1511.2600, -63.524
1511.2800, -63.515
1511.3000, -63.498
1511.3200, -63.477
1511.3400, -63.488
1511.3600, -63.401
1511.3800, -63.447
1511.4000, -63.509
1511.4200, -63.398
1511.4400, -63.421
1511.4600, -63.411
1511.4800, -63.403
1511.5000, -63.357
1511.5200, -63.343
1511.5400, -63.342
1511.5600, -63.342
1511.5800, -63.327
1511.6000, -63.294
1511.6200, -63.318
1511.6400, -63.320
1511.6600, -63.279
1511.6800, -63.290
1511.7000, -63.278
1511.7200, -63.296
1511.7400, -63.295
1511.7600, -63.296
1511.7800, -63.286
1511.8000, -63.261
1511.8200, -63.273
1511.8400, -63.279
1511.8600, -63.317
1511.8800, -63.288
1511.9000, -63.312
1511.9200, -63.282
1511.9400, -63.176
1511.9600, -63.313
1511.9800, -63.254
1512.0000, -63.230
1512.0200, -63.221
1512.0400, -63.255
1512.0600, -63.284
1512.0800, -63.207
1512.1000, -63.217
1512.1200, -63.220
1512.1400, -63.203
1512.1600, -63.207
1512.1800, -63.233
1512.2000, -63.147
1512.2200, -63.184
1512.2400, -63.132
1512.2600, -63.129
1512.2800, -63.156
1512.3000, -63.071
1512.3200, -63.038
1512.3400, -63.085
1512.3600, -63.090
1512.3800, -63.053
1512.4000, -63.051
1512.4200, -63.028
1512.4400, -63.027
1512.4600, -63.044
1512.4800, -62.970
1512.5000, -62.989
1512.5200, -62.966
1512.5400, -62.945
1512.5600, -62.966
1512.5800, -62.963
1512.6000, -62.891
1512.6200, -62.952
1512.6400, -62.927
1512.6600, -62.970
1512.6800, -62.930
1512.7000, -62.926
1512.7200, -62.941
1512.7400, -62.911
1512.7600, -62.932
1512.7800, -62.916
1512.8000, -62.950
1512.8200, -62.975
1512.8400, -62.948
1512.8600, -62.930
1512.8800, -62.953
1512.9000, -62.876
1512.9200, -62.897
1512.9400, -62.885
1512.9600, -62.864
1512.9800, -62.936
1513.0000, -62.897
1513.0200, -62.888
1513.0400, -62.904
1513.0600, -62.900
1513.0800, -62.871
1513.1000, -62.831
1513.1200, -62.819
1513.1400, -62.836
1513.1600, -62.785
1513.1800, -62.783
1513.2000, -62.790
1513.2200, -62.760
1513.2400, -62.776
1513.2600, -62.732
1513.2800, -62.699
1513.3000, -62.745
1513.3200, -62.695
1513.3400, -62.680
1513.3600, -62.672
1513.3800, -62.609
1513.4000, -62.684
1513.4200, -62.648
1513.4400, -62.617
1513.4600, -62.507
1513.4800, -62.627
1513.5000, -62.616
1513.5200, -62.566
1513.5400, -62.546
1513.5600, -62.572
1513.5800, -62.541
1513.6000, -62.605
1513.6200, -62.579
1513.6400, -62.550
1513.6600, -62.568
1513.6800, -62.526
1513.7000, -62.554
1513.7200, -62.585
1513.7400, -62.532
1513.7600, -62.614
1513.7800, -62.560
1513.8000, -62.547
1513.8200, -62.552
1513.8400, -62.520
1513.8600, -62.490
1513.8800, -62.507
1513.9000, -62.504
1513.9200, -62.526
1513.9400, -62.525
1513.9600, -62.489
1513.9800, -62.513
1514.0000, -62.450
1514.0200, -62.472
1514.0400, -62.454
1514.0600, -62.490
1514.0800, -62.437
1514.1000, -62.405
1514.1200, -62.403
1514.1400, -62.383
1514.1600, -62.369
1514.1800, -62.367
1514.2000, -62.333
1514.2200, -62.318
1514.2400, -62.333
1514.2600, -62.375
1514.2800, -62.306
1514.3000, -62.284
1514.3200, -62.271
1514.3400, -62.289
1514.3600, -62.166
1514.3800, -62.233
1514.4000, -62.149
1514.4200, -62.203
1514.4400, -62.208
1514.4600, -62.201
1514.4800, -62.121
1514.5000, -62.171
1514.5200, -62.115
1514.5400, -62.168
1514.5600, -62.161
1514.5800, -62.154
1514.6000, -62.172
1514.6200, -62.172
1514.6400, -62.169
1514.6600, -62.169
1514.6800, -62.120
1514.7000, -62.178
1514.7200, -62.183
1514.7400, -62.160
1514.7600, -62.165
1514.7800, -62.074
1514.8000, -62.146
1514.8200, -62.090
1514.8400, -62.067
1514.8600, -62.122
1514.8800, -62.131
1514.9000, -62.103
1514.9200, -62.113
1514.9400, -62.031
1514.9600, -62.114
1514.9800, -62.074
1515.0000, -62.015
1515.0200, -62.019
1515.0400, -61.980
1515.0600, -61.991
1515.0800, -61.986
1515.1000, -61.951
1515.1200, -61.946
1515.1400, -61.958
1515.1600, -61.887
1515.1800, -61.948
1515.2000, -61.873
1515.2200, -61.908
1515.2400, -61.855
1515.2600, -61.858
1515.2800, -61.811
1515.3000, -61.843
1515.3200, -61.788
1515.3400, -61.712
1515.3600, -61.777
1515.3800, -61.771
1515.4000, -61.789
1515.4200, -61.728
1515.4400, -61.695
1515.4600, -61.724
1515.4800, -61.732
1515.5000, -61.690
1515.5200, -61.745
1515.5400, -61.707
1515.5600, -61.731
1515.5800, -61.659
1515.6000, -61.713
1515.6200, -61.702
1515.6400, -61.755
1515.6600, -61.737
1515.6800, -61.713
1515.7000, -61.729
1515.7200, -61.722
1515.7400, -61.659
1515.7600, -61.692
1515.7800, -61.627
1515.8000, -61.712
1515.8200, -61.671
1515.8400, -61.661
1515.8600, -61.645
1515.8800, -61.624
1515.9000, -61.653
1515.9200, -61.614
1515.9400, -61.602
1515.9600, -61.570
1515.9800, -61.579
1516.0000, -61.543
1516.0200, -61.503
1516.0400, -61.490
1516.0600, -61.496
1516.0800, -61.486
1516.1000, -61.442
1516.1200, -61.479
1516.1400, -61.448
1516.1600, -61.430
1516.1800, -61.395
1516.2000, -61.404
1516.2200, -61.362
1516.2400, -61.340
1516.2600, -61.332
1516.2800, -61.300
1516.3000, -61.283
1516.3200, -61.301
1516.3400, -61.269
1516.3600, -61.259
1516.3800, -61.208
1516.4000, -61.240
1516.4200, -61.221
1516.4400, -61.267
1516.4600, -61.273
1516.4800, -61.235
1516.5000, -61.246
1516.5200, -61.196
1516.5400, -61.205
1516.5600, -61.270
1516.5800, -61.227
1516.6000, -61.232
1516.6200, -61.250
1516.6400, -61.219
1516.6600, -61.191
1516.6800, -61.190
1516.7000, -61.163
1516.7200, -61.137
1516.7400, -61.147
1516.7600, -61.203
1516.7800, -61.155
1516.8000, -61.134
1516.8200, -61.130
1516.8400, -61.127
1516.8600, -61.095
1516.8800, -61.071
1516.9000, -61.070
1516.9200, -61.058
1516.9400, -61.026
1516.9600, -60.987
1516.9800, -60.978
1517.0000, -60.940
1517.0200, -60.952
1517.0400, -60.929
1517.0600, -60.928
1517.0800, -60.918
1517.1000, -60.890
1517.1200, -60.865
1517.1400, -60.858
1517.1600, -60.828
1517.1800, -60.787
1517.2000, -60.770
1517.2200, -60.764
1517.2400, -60.711
1517.2600, -60.788
1517.2800, -60.736
1517.3000, -60.693
1517.3200, -60.697
1517.3400, -60.681
1517.3600, -60.684
1517.3800, -60.701
1517.4000, -60.679
1517.4200, -60.704
1517.4400, -60.672
1517.4600, -60.643
1517.4800, -60.683
1517.5000, -60.661
1517.5200, -60.665
1517.5400, -60.685
1517.5600, -60.686
1517.5800, -60.656
1517.6000, -60.641
1517.6200, -60.613
1517.6400, -60.587
1517.6600, -60.567
1517.6800, -60.591
1517.7000, -60.603
1517.7200, -60.586
1517.7400, -60.533
1517.7600, -60.552
1517.7800, -60.561
1517.8000, -60.539
1517.8200, -60.503
1517.8400, -60.486
1517.8600, -60.464
1517.8800, -60.426
1517.9000, -60.418
1517.9200, -60.383
1517.9400, -60.358
1517.9600, -60.353
1517.9800, -60.319
1518.0000, -60.302
1518.0200, -60.337
1518.0400, -60.283
1518.0600, -60.281
1518.0800, -60.245
1518.1000, -60.231
1518.1200, -60.154
1518.1400, -60.176
1518.1600, -60.126
1518.1800, -60.122
1518.2000, -60.138
1518.2200, -60.122
1518.2400, -60.083
1518.2600, -60.055
1518.2800, -60.072
1518.3000, -60.046
1518.3200, -60.076
1518.3400, -60.052
1518.3600, -60.058
1518.3800, -60.030
1518.4000, -60.027
1518.4200, -60.015
1518.4400, -60.051
1518.4600, -60.041
1518.4800, -60.043
1518.5000, -60.022
1518.5200, -60.011
1518.5400, -59.969
1518.5600, -59.941
1518.5800, -59.950
1518.6000, -59.918
1518.6200, -59.911
1518.6400, -59.936
1518.6600, -59.950
1518.6800, -59.903
1518.7000, -59.887
1518.7200, -59.889
1518.7400, -59.835
1518.7600, -59.839
1518.7800, -59.805
1518.8000, -59.780
1518.8200, -59.758
1518.8400, -59.734
1518.8600, -59.693
1518.8800, -59.655
1518.9000, -59.660
1518.9200, -59.643
1518.9400, -59.632
1518.9600, -59.626
1518.9800, -59.600
1519.0000, -59.563
1519.0200, -59.576
1519.0400, -59.488
1519.0600, -59.497
1519.0800, -59.442
1519.1000, -59.418
1519.1200, -59.403
1519.1400, -59.427
1519.1600, -59.384
1519.1800, -59.342
1519.2000, -59.363
1519.2200, -59.318
1519.2400, -59.332
1519.2600, -59.322
1519.2800, -59.334
1519.3000, -59.318
1519.3200, -59.307
1519.3400, -59.275
1519.3600, -59.277
1519.3800, -59.277
1519.4000, -59.264
1519.4200, -59.288
1519.4400, -59.283
1519.4600, -59.251
1519.4800, -59.224
1519.5000, -59.208
1519.5200, -59.180
1519.5400, -59.160
1519.5600, -59.133
1519.5800, -59.202
1519.6000, -59.161
1519.6200, -59.111
1519.6400, -59.106
1519.6600, -59.100
1519.6800, -59.067
1519.7000, -59.043
1519.7200, -59.028
1519.7400, -59.013
1519.7600, -58.971
1519.7800, -58.928
1519.8000, -58.883
1519.8200, -58.845
1519.8400, -58.868
1519.8600, -58.819
1519.8800, -58.807
1519.9000, -58.811
1519.9200, -58.746
1519.9400, -58.718
1519.9600, -58.713
1519.9800, -58.694
1520.0000, -58.653
1520.0200, -58.607
1520.0400, -58.560
1520.0600, -58.560
1520.0800, -58.569
1520.1000, -58.550
1520.1200, -58.479
1520.1400, -58.457
1520.1600, -58.468
1520.1800, -58.459
1520.2000, -58.443
1520.2200, -58.446
1520.2400, -58.417
1520.2600, -58.443
1520.2800, -58.390
1520.3000, -58.407
1520.3200, -58.400
1520.3400, -58.418
1520.3600, -58.387
1520.3800, -58.394
1520.4000, -58.370
1520.4200, -58.309
1520.4400, -58.306
1520.4600, -58.279
1520.4800, -58.233
1520.5000, -58.234
1520.5200, -58.271
1520.5400, -58.244
1520.5600, -58.206
1520.5800, -58.190
1520.6000, -58.163
1520.6200, -58.141
