70BCSV 	
// AQ6370B OPTICAL SPECTRUM ANALYZER //                 
25
"CTRWL",1550.000000
"SPAN", 100.000000
"START WL",1500.000000
"STOP WL",1600.000000
"WLFREQ", 0
"REFL",-62.8
"LSCL", 5.0
"RESLN",0.100
"AVG",   1
"SMPLAUTO",      0
"SMPL",       5001
"SMPLINTVL",0.0200
"HIGH1"
"MEAS"
"LSUNT",0
"NMSKH","OFF"
"RESCOR",0
"RESPARM", 9050
"FREQPARM", 9050






"[TRACE DATA]"
1500.0000, -81.749
1500.0200,-105.986
1500.0400, -84.170
1500.0600, -87.191
1500.0800,-111.378
1500.1000, -84.294
1500.1200, -87.177
1500.1400,-210.000
1500.1600, -81.666
1500.1800,-210.000
1500.2000, -88.741
1500.2200, -86.024
1500.2400, -84.697
1500.2600, -81.931
1500.2800, -96.344
1500.3000, -87.925
1500.3200, -83.786
1500.3400, -88.082
1500.3600, -84.568
1500.3800, -83.713
1500.4000,-210.000
1500.4200, -86.063
1500.4400, -90.250
1500.4600, -84.828
1500.4800, -87.958
1500.5000, -86.697
1500.5200, -81.672
1500.5400, -84.770
1500.5600, -84.249
1500.5800, -81.978
1500.6000, -81.994
1500.6200, -85.230
1500.6400,-210.000
1500.6600, -82.661
1500.6800, -86.946
1500.7000,-210.000
1500.7200, -81.659
1500.7400,-210.000
1500.7600, -81.060
1500.7800, -88.377
1500.8000, -88.714
1500.8200,-210.000
1500.8400, -82.853
1500.8600,-101.251
1500.8800, -81.773
1500.9000, -85.562
1500.9200, -83.619
1500.9400, -85.608
1500.9600, -85.801
1500.9800, -82.753
1501.0000, -83.166
1501.0200,-210.000
1501.0400, -83.687
1501.0600, -83.056
1501.0800, -88.063
1501.1000, -83.409
1501.1200,-210.000
1501.1400, -82.910
1501.1600, -84.737
1501.1800, -87.286
1501.2000, -83.884
1501.2200, -82.778
1501.2400, -83.464
1501.2600, -89.369
1501.2800,-210.000
1501.3000, -89.774
1501.3200, -83.952
1501.3400, -87.291
1501.3600, -85.066
1501.3800, -83.517
1501.4000, -86.292
1501.4200, -81.987
1501.4400, -87.247
1501.4600, -83.845
1501.4800, -87.890
1501.5000, -84.528
1501.5200, -83.641
1501.5400, -84.914
1501.5600, -84.577
1501.5800, -84.733
1501.6000, -84.324
1501.6200, -88.417
1501.6400,-102.573
1501.6600, -84.576
1501.6800, -85.628
1501.7000, -84.340
1501.7200, -85.597
1501.7400, -85.663
1501.7600, -85.844
1501.7800, -87.580
1501.8000,-210.000
1501.8200, -86.109
1501.8400, -85.990
1501.8600, -86.905
1501.8800, -94.555
1501.9000, -92.767
1501.9200, -82.434
1501.9400, -86.722
1501.9600, -86.616
1501.9800, -84.836
1502.0000, -82.416
1502.0200,-210.000
1502.0400, -89.017
1502.0600, -83.195
1502.0800, -82.983
1502.1000, -94.489
1502.1200, -84.547
1502.1400, -89.316
1502.1600, -84.355
1502.1800, -89.388
1502.2000, -83.754
1502.2200, -83.697
1502.2400, -85.270
1502.2600, -85.740
1502.2800,-210.000
1502.3000, -82.364
1502.3200, -80.686
1502.3400, -83.283
1502.3600, -87.447
1502.3800, -89.166
1502.4000, -82.134
1502.4200, -84.724
1502.4400, -82.911
1502.4600, -84.070
1502.4800, -82.715
1502.5000, -89.169
1502.5200, -85.780
1502.5400, -82.847
1502.5600, -85.117
1502.5800,-210.000
1502.6000,-210.000
1502.6200, -80.755
1502.6400, -83.296
1502.6600, -84.037
1502.6800, -82.932
1502.7000, -85.833
1502.7200, -83.490
1502.7400, -86.600
1502.7600, -85.488
1502.7800, -84.701
1502.8000, -85.337
1502.8200, -86.495
1502.8400, -90.637
1502.8600, -82.137
1502.8800, -83.607
1502.9000, -83.057
1502.9200, -83.915
1502.9400, -83.954
1502.9600, -89.710
1502.9800, -84.312
1503.0000, -83.628
1503.0200, -92.338
1503.0400, -83.297
1503.0600, -85.511
1503.0800, -93.503
1503.1000, -92.034
1503.1200, -81.799
1503.1400, -81.807
1503.1600, -84.773
1503.1800, -87.154
1503.2000, -91.310
1503.2200, -81.679
1503.2400, -88.779
1503.2600, -82.111
1503.2800, -94.201
1503.3000,-210.000
1503.3200, -87.229
1503.3400, -87.055
1503.3600,-210.000
1503.3800, -84.595
1503.4000, -86.621
1503.4200, -83.688
1503.4400, -84.125
1503.4600, -86.603
1503.4800, -82.900
1503.5000, -91.392
1503.5200, -82.507
1503.5400, -84.827
1503.5600, -87.143
1503.5800, -85.533
1503.6000, -82.904
1503.6200, -86.079
1503.6400, -95.540
1503.6600, -84.564
1503.6800, -87.814
1503.7000, -83.717
1503.7200, -82.658
1503.7400, -85.346
1503.7600, -86.258
1503.7800, -84.568
1503.8000,-210.000
1503.8200, -79.813
1503.8400, -95.238
1503.8600, -94.526
1503.8800, -86.800
1503.9000, -80.357
1503.9200, -86.412
1503.9400, -87.955
1503.9600, -82.774
1503.9800, -84.118
1504.0000,-111.745
1504.0200, -86.113
1504.0400, -86.974
1504.0600, -86.739
1504.0800, -92.577
1504.1000, -88.125
1504.1200, -86.285
1504.1400, -80.338
1504.1600, -85.552
1504.1800,-210.000
1504.2000, -83.282
1504.2200, -83.404
1504.2400, -87.472
1504.2600, -86.475
1504.2800, -83.078
1504.3000, -90.221
1504.3200, -85.685
1504.3400, -86.939
1504.3600, -83.594
1504.3800, -99.513
1504.4000, -82.043
1504.4200, -82.081
1504.4400, -83.757
1504.4600, -89.783
1504.4800, -83.987
1504.5000,-210.000
1504.5200, -82.872
1504.5400, -86.219
1504.5600, -89.504
1504.5800, -82.379
1504.6000, -88.195
1504.6200,-210.000
1504.6400, -90.164
1504.6600, -83.989
1504.6800, -83.273
1504.7000, -84.976
1504.7200,-210.000
1504.7400, -93.897
1504.7600, -81.891
1504.7800, -97.402
1504.8000, -83.592
1504.8200,-210.000
1504.8400, -83.038
1504.8600, -86.301
1504.8800, -84.255
1504.9000, -82.739
1504.9200, -86.019
1504.9400, -81.974
1504.9600, -81.227
1504.9800,-210.000
1505.0000, -85.168
1505.0200, -81.628
1505.0400, -93.527
1505.0600, -85.255
1505.0800, -86.248
1505.1000, -84.605
1505.1200, -82.019
1505.1400, -93.325
1505.1600,-210.000
1505.1800, -83.348
1505.2000, -85.127
1505.2200, -94.477
1505.2400, -81.451
1505.2600, -87.692
1505.2800, -81.963
1505.3000, -81.751
1505.3200, -87.210
1505.3400, -81.207
1505.3600,-210.000
1505.3800, -80.692
1505.4000, -83.174
1505.4200, -90.216
1505.4400, -87.068
1505.4600, -81.929
1505.4800, -86.362
1505.5000,-210.000
1505.5200, -83.734
1505.5400, -91.656
1505.5600, -82.040
1505.5800, -82.075
1505.6000, -92.687
1505.6200, -83.687
1505.6400, -81.930
1505.6600,-210.000
1505.6800, -83.586
1505.7000, -85.645
1505.7200, -86.745
1505.7400, -84.457
1505.7600, -85.315
1505.7800, -80.902
1505.8000,-210.000
1505.8200, -88.792
1505.8400,-210.000
1505.8600, -81.771
1505.8800, -81.752
1505.9000, -84.553
1505.9200,-210.000
1505.9400, -81.976
1505.9600, -83.533
1505.9800, -84.620
1506.0000, -89.268
1506.0200, -82.924
1506.0400, -86.632
1506.0600, -85.366
1506.0800, -87.109
1506.1000, -86.454
1506.1200, -87.352
1506.1400,-210.000
1506.1600,-210.000
1506.1800, -83.124
1506.2000, -83.396
1506.2200,-210.000
1506.2400, -82.157
1506.2600, -81.879
1506.2800, -83.763
1506.3000, -82.307
1506.3200,-210.000
1506.3400, -84.452
1506.3600, -83.849
1506.3800, -83.868
1506.4000,-210.000
1506.4200, -95.094
1506.4400, -83.821
1506.4600, -84.033
1506.4800,-210.000
1506.5000,-210.000
1506.5200, -80.501
1506.5400, -84.649
1506.5600, -84.078
1506.5800, -84.617
1506.6000,-210.000
1506.6200, -80.283
1506.6400, -86.691
1506.6600,-210.000
1506.6800, -80.694
1506.7000, -86.566
1506.7200, -84.910
1506.7400, -84.431
1506.7600, -84.239
1506.7800, -86.604
1506.8000, -94.486
1506.8200, -83.013
1506.8400, -90.967
1506.8600, -85.185
1506.8800, -83.305
1506.9000, -83.434
1506.9200,-106.767
1506.9400, -89.467
1506.9600, -83.914
1506.9800, -83.772
1507.0000, -83.170
1507.0200, -86.260
1507.0400, -88.775
1507.0600, -84.088
1507.0800, -82.944
1507.1000, -95.077
1507.1200, -83.604
1507.1400, -84.851
1507.1600, -84.242
1507.1800, -86.492
1507.2000,-210.000
1507.2200, -88.287
1507.2400, -81.331
1507.2600, -84.393
1507.2800, -86.754
1507.3000, -85.947
1507.3200, -84.635
1507.3400, -82.749
1507.3600, -82.762
1507.3800, -85.398
1507.4000, -84.524
1507.4200, -83.587
1507.4400, -89.590
1507.4600, -86.613
1507.4800, -83.587
1507.5000, -87.836
1507.5200,-210.000
1507.5400, -81.253
1507.5600, -83.367
1507.5800,-210.000
1507.6000, -83.261
1507.6200, -83.415
1507.6400,-210.000
1507.6600,-210.000
1507.6800, -79.428
1507.7000,-210.000
1507.7200, -82.991
1507.7400, -81.617
1507.7600, -84.773
1507.7800, -88.045
1507.8000, -82.735
1507.8200, -84.692
1507.8400,-210.000
1507.8600, -83.543
1507.8800, -85.795
1507.9000, -87.681
1507.9200,-210.000
1507.9400, -81.964
1507.9600, -88.738
1507.9800, -85.175
1508.0000, -83.551
1508.0200, -83.790
1508.0400, -93.314
1508.0600, -80.900
1508.0800, -88.643
1508.1000, -80.837
1508.1200,-210.000
1508.1400, -84.223
1508.1600, -81.593
1508.1800,-210.000
1508.2000, -81.266
1508.2200, -86.534
1508.2400, -83.724
1508.2600,-210.000
1508.2800, -82.534
1508.3000, -91.355
1508.3200, -86.021
1508.3400, -86.229
1508.3600,-210.000
1508.3800, -83.945
1508.4000,-210.000
1508.4200, -82.409
1508.4400,-210.000
1508.4600, -83.071
1508.4800, -82.383
1508.5000, -86.620
1508.5200, -93.833
1508.5400, -88.758
1508.5600, -85.069
1508.5800, -86.087
1508.6000, -81.692
1508.6200, -82.741
1508.6400, -83.927
1508.6600, -89.455
1508.6800, -83.224
1508.7000, -97.600
1508.7200, -84.415
1508.7400, -83.305
1508.7600, -83.898
1508.7800, -85.421
1508.8000, -86.274
1508.8200, -83.141
1508.8400, -83.350
1508.8600, -85.254
1508.8800, -86.183
1508.9000, -84.018
1508.9200,-102.695
1508.9400, -82.552
1508.9600,-103.485
1508.9800, -85.140
1509.0000, -84.111
1509.0200, -87.183
1509.0400, -89.730
1509.0600, -83.129
1509.0800, -88.130
1509.1000, -82.876
1509.1200, -85.720
1509.1400, -82.890
1509.1600,-210.000
1509.1800,-210.000
1509.2000, -82.022
1509.2200, -82.770
1509.2400, -83.814
1509.2600, -86.874
1509.2800, -86.953
1509.3000, -98.721
1509.3200, -81.721
1509.3400, -82.618
1509.3600, -83.908
1509.3800, -90.264
1509.4000, -82.718
1509.4200, -91.641
1509.4400, -83.592
1509.4600,-210.000
1509.4800, -82.414
1509.5000, -92.298
1509.5200, -81.735
1509.5400, -87.610
1509.5600, -80.894
1509.5800, -81.739
1509.6000, -89.523
1509.6200, -85.774
1509.6400, -86.158
1509.6600, -84.761
1509.6800, -86.797
1509.7000, -85.043
1509.7200,-210.000
1509.7400, -88.625
1509.7600, -81.141
1509.7800, -81.778
1509.8000,-210.000
1509.8200, -82.690
1509.8400,-210.000
1509.8600, -88.250
1509.8800,-210.000
1509.9000, -84.166
1509.9200, -83.506
1509.9400, -93.339
1509.9600, -84.520
1509.9800, -84.205
1510.0000, -85.256
1510.0200, -84.594
1510.0400, -85.000
1510.0600, -88.186
1510.0800, -83.481
1510.1000, -88.293
1510.1200, -86.304
1510.1400, -85.420
1510.1600, -83.974
1510.1800, -84.741
1510.2000, -81.828
1510.2200, -84.628
1510.2400, -84.749
1510.2600, -88.909
1510.2800, -89.391
1510.3000, -82.289
1510.3200, -87.838
1510.3400, -88.229
1510.3600, -81.473
1510.3800, -85.428
1510.4000, -86.691
1510.4200,-210.000
1510.4400, -83.103
1510.4600, -84.191
1510.4800, -86.310
1510.5000, -87.919
1510.5200,-103.854
1510.5400, -82.500
1510.5600, -82.254
1510.5800, -87.189
1510.6000, -84.755
1510.6200, -82.632
1510.6400, -86.980
1510.6600, -84.638
1510.6800, -86.204
1510.7000,-210.000
1510.7200, -83.408
1510.7400, -85.907
1510.7600, -82.208
1510.7800,-210.000
1510.8000, -84.995
1510.8200, -85.174
1510.8400, -83.093
1510.8600, -82.400
1510.8800,-210.000
1510.9000, -88.862
1510.9200, -82.323
1510.9400, -83.751
1510.9600, -85.520
1510.9800, -85.655
1511.0000,-210.000
1511.0200, -87.097
1511.0400, -88.310
1511.0600, -85.166
1511.0800, -82.202
1511.1000, -86.343
1511.1200, -83.213
1511.1400, -84.607
1511.1600, -98.118
1511.1800, -82.668
1511.2000,-210.000
1511.2200, -81.108
1511.2400, -86.338
1511.2600, -82.119
1511.2800,-210.000
1511.3000, -81.527
1511.3200,-210.000
1511.3400, -83.010
1511.3600, -81.181
1511.3800, -86.780
1511.4000, -89.479
1511.4200,-210.000
1511.4400, -85.067
1511.4600, -83.628
1511.4800, -83.637
1511.5000, -83.901
1511.5200, -81.369
1511.5400,-210.000
1511.5600, -82.224
1511.5800, -81.722
1511.6000, -85.932
1511.6200, -85.122
1511.6400,-210.000
1511.6600, -91.231
1511.6800, -81.008
1511.7000,-210.000
1511.7200, -84.822
1511.7400, -86.066
1511.7600, -82.106
1511.7800, -92.206
1511.8000, -84.598
1511.8200, -91.925
1511.8400, -83.083
1511.8600, -83.124
1511.8800, -87.028
1511.9000, -92.603
1511.9200, -85.707
1511.9400, -95.702
1511.9600, -82.848
1511.9800,-210.000
1512.0000, -84.607
1512.0200, -86.332
1512.0400,-210.000
1512.0600, -81.883
1512.0800, -83.167
1512.1000,-210.000
1512.1200,-210.000
1512.1400, -83.573
1512.1600, -83.892
1512.1800,-210.000
1512.2000, -80.757
1512.2200, -89.687
1512.2400, -88.612
1512.2600, -86.907
1512.2800, -84.961
1512.3000,-210.000
1512.3200, -84.830
1512.3400, -91.236
1512.3600, -84.505
1512.3800, -81.355
1512.4000, -84.320
1512.4200, -85.005
1512.4400,-210.000
1512.4600, -81.767
1512.4800,-210.000
1512.5000, -82.079
1512.5200, -87.555
1512.5400, -83.818
1512.5600, -84.447
1512.5800, -84.313
1512.6000, -89.310
1512.6200, -83.141
1512.6400,-210.000
1512.6600, -82.817
1512.6800,-210.000
1512.7000, -87.932
1512.7200, -83.948
1512.7400, -94.618
1512.7600, -88.225
1512.7800, -82.523
1512.8000,-210.000
1512.8200,-112.104
1512.8400, -87.500
1512.8600, -84.958
1512.8800, -82.230
1512.9000, -85.206
1512.9200, -83.526
1512.9400, -85.781
1512.9600,-210.000
1512.9800, -84.036
1513.0000, -83.306
1513.0200, -82.652
1513.0400, -84.818
1513.0600, -84.959
1513.0800, -87.716
1513.1000, -88.849
1513.1200, -91.747
1513.1400, -83.938
1513.1600, -83.581
1513.1800, -83.891
1513.2000, -86.700
1513.2200, -82.381
1513.2400,-102.833
1513.2600, -88.566
1513.2800, -88.218
1513.3000, -89.147
1513.3200, -88.079
1513.3400, -90.812
1513.3600, -88.193
1513.3800, -81.546
1513.4000, -88.578
1513.4200, -88.239
1513.4400, -80.910
1513.4600, -86.364
1513.4800, -88.305
1513.5000, -88.599
1513.5200, -83.766
1513.5400, -93.857
1513.5600, -80.715
1513.5800, -85.317
1513.6000, -95.309
1513.6200, -86.430
1513.6400, -86.934
1513.6600, -83.961
1513.6800, -83.064
1513.7000, -87.391
1513.7200, -81.887
1513.7400, -86.238
1513.7600,-210.000
1513.7800, -90.643
1513.8000, -85.797
1513.8200, -83.260
1513.8400,-210.000
1513.8600, -85.837
1513.8800, -83.530
1513.9000, -83.598
1513.9200, -85.150
1513.9400, -88.969
1513.9600, -83.092
1513.9800,-210.000
1514.0000, -82.033
1514.0200,-210.000
1514.0400, -82.747
1514.0600,-210.000
1514.0800, -83.731
1514.1000, -84.323
1514.1200, -80.848
1514.1400, -90.892
1514.1600, -86.301
1514.1800, -83.365
1514.2000, -86.520
1514.2200, -85.060
1514.2400, -85.743
1514.2600,-210.000
1514.2800, -83.337
1514.3000,-210.000
1514.3200, -85.963
1514.3400,-210.000
1514.3600, -81.387
1514.3800,-210.000
1514.4000, -80.656
1514.4200, -89.424
1514.4400, -83.413
1514.4600, -83.148
1514.4800, -83.251
1514.5000, -82.488
1514.5200, -83.832
1514.5400, -90.152
1514.5600, -85.347
1514.5800, -83.246
1514.6000,-210.000
1514.6200, -82.878
1514.6400, -88.319
1514.6600, -89.459
1514.6800,-210.000
1514.7000, -82.364
1514.7200, -82.319
1514.7400, -87.512
1514.7600,-210.000
1514.7800, -84.664
1514.8000, -82.721
1514.8200, -84.930
1514.8400, -82.434
1514.8600, -93.427
1514.8800, -84.555
1514.9000, -82.064
1514.9200, -86.703
1514.9400, -81.808
1514.9600,-210.000
1514.9800, -82.437
1515.0000,-210.000
1515.0200, -92.777
1515.0400, -84.452
1515.0600, -84.039
1515.0800, -87.367
1515.1000, -84.347
1515.1200,-210.000
1515.1400, -89.164
1515.1600, -88.124
1515.1800, -82.074
1515.2000, -93.893
1515.2200, -82.995
1515.2400, -88.475
1515.2600,-210.000
1515.2800, -89.197
1515.3000, -81.810
1515.3200, -89.115
1515.3400, -83.365
1515.3600, -87.149
1515.3800, -83.066
1515.4000,-210.000
1515.4200, -82.298
1515.4400, -83.861
1515.4600, -90.611
1515.4800, -89.820
1515.5000, -91.565
1515.5200,-210.000
1515.5400, -86.353
1515.5600, -81.393
1515.5800, -85.895
1515.6000, -84.124
1515.6200,-210.000
1515.6400,-101.270
1515.6600, -83.530
1515.6800, -82.550
1515.7000, -86.888
1515.7200,-210.000
1515.7400, -79.987
1515.7600,-210.000
1515.7800, -81.868
1515.8000,-210.000
1515.8200, -81.298
1515.8400, -84.250
1515.8600, -82.867
1515.8800,-210.000
1515.9000, -84.507
1515.9200,-210.000
1515.9400, -84.433
1515.9600, -83.137
1515.9800, -96.516
1516.0000,-210.000
1516.0200, -82.734
1516.0400, -82.950
1516.0600,-210.000
1516.0800, -94.677
1516.1000, -82.096
1516.1200, -93.294
1516.1400, -93.470
1516.1600,-210.000
1516.1800, -80.941
1516.2000, -85.638
1516.2200, -85.704
1516.2400, -84.188
1516.2600, -84.762
1516.2800, -85.575
1516.3000, -87.760
1516.3200, -86.029
1516.3400, -84.565
1516.3600, -84.173
1516.3800, -94.481
1516.4000, -83.212
1516.4200, -85.183
1516.4400, -98.831
1516.4600, -88.249
1516.4800, -90.132
1516.5000, -83.227
1516.5200,-210.000
1516.5400, -83.587
1516.5600, -86.118
1516.5800, -95.569
1516.6000, -82.853
1516.6200, -91.358
1516.6400, -82.455
1516.6600,-210.000
1516.6800, -81.107
1516.7000, -83.173
1516.7200, -87.221
1516.7400, -83.102
1516.7600,-210.000
1516.7800, -82.962
1516.8000,-210.000
1516.8200, -83.131
1516.8400, -85.807
1516.8600, -87.533
1516.8800, -83.730
1516.9000, -90.696
1516.9200,-210.000
1516.9400, -79.819
1516.9600, -93.066
1516.9800, -89.854
1517.0000,-210.000
1517.0200, -80.921
1517.0400,-210.000
1517.0600, -81.181
1517.0800,-210.000
1517.1000, -82.925
1517.1200, -87.173
1517.1400, -87.194
1517.1600, -83.237
1517.1800, -82.974
1517.2000, -81.024
1517.2200,-210.000
1517.2400, -85.050
1517.2600, -81.589
1517.2800, -95.869
1517.3000, -87.814
1517.3200, -84.120
1517.3400, -88.780
1517.3600, -82.115
1517.3800, -87.176
1517.4000, -84.433
1517.4200, -86.589
1517.4400,-210.000
1517.4600, -80.141
1517.4800, -88.215
1517.5000, -85.680
1517.5200,-210.000
1517.5400, -82.703
1517.5600, -83.879
1517.5800, -94.417
1517.6000, -89.383
1517.6200, -85.683
1517.6400, -85.059
1517.6600, -81.359
1517.6800, -85.782
1517.7000, -89.726
1517.7200,-210.000
1517.7400, -83.189
1517.7600, -83.992
1517.7800, -83.955
1517.8000, -82.988
1517.8200, -85.622
1517.8400, -85.689
1517.8600, -85.429
1517.8800, -90.069
1517.9000, -84.814
1517.9200, -84.715
1517.9400, -90.305
1517.9600, -92.086
1517.9800, -86.815
1518.0000, -86.895
1518.0200, -85.290
1518.0400, -85.471
1518.0600, -81.512
1518.0800, -86.405
1518.1000,-210.000
1518.1200, -84.061
1518.1400, -85.876
1518.1600, -84.947
1518.1800, -82.539
1518.2000, -94.298
1518.2200,-210.000
1518.2400, -84.554
1518.2600, -87.677
1518.2800, -90.934
1518.3000, -88.526
1518.3200,-210.000
1518.3400, -90.500
1518.3600, -83.316
1518.3800, -81.975
1518.4000, -91.100
1518.4200, -95.829
1518.4400, -84.473
1518.4600, -82.146
1518.4800,-210.000
1518.5000,-210.000
1518.5200, -84.057
1518.5400,-210.000
1518.5600, -84.324
1518.5800,-210.000
1518.6000, -83.803
1518.6200, -85.827
1518.6400, -83.935
1518.6600,-210.000
1518.6800, -84.432
1518.7000, -86.721
1518.7200,-210.000
1518.7400, -85.685
1518.7600, -84.348
1518.7800, -87.055
1518.8000, -84.405
1518.8200, -84.901
1518.8400, -84.056
1518.8600, -85.558
1518.8800, -88.196
1518.9000, -86.582
1518.9200, -93.174
1518.9400, -84.662
1518.9600, -81.974
1518.9800, -95.353
1519.0000, -85.692
1519.0200, -82.405
1519.0400, -85.468
1519.0600, -85.684
1519.0800,-210.000
1519.1000, -83.387
1519.1200, -85.447
1519.1400, -82.253
1519.1600, -97.898
1519.1800, -87.855
1519.2000, -99.383
1519.2200, -81.768
1519.2400,-210.000
1519.2600, -79.681
1519.2800, -86.095
1519.3000, -86.005
1519.3200, -85.598
1519.3400, -89.753
1519.3600,-210.000
1519.3800, -92.331
1519.4000, -81.962
1519.4200,-210.000
1519.4400, -85.943
1519.4600, -88.050
1519.4800, -89.578
1519.5000, -87.721
1519.5200, -85.869
1519.5400, -80.869
1519.5600, -85.555
1519.5800, -80.949
1519.6000, -84.163
1519.6200,-210.000
1519.6400, -89.686
1519.6600, -87.207
1519.6800, -92.707
1519.7000, -82.395
1519.7200, -81.540
1519.7400, -84.754
1519.7600, -85.385
1519.7800, -89.544
1519.8000, -82.709
1519.8200, -84.003
1519.8400, -85.891
1519.8600, -86.520
1519.8800,-210.000
1519.9000, -80.359
1519.9200, -83.821
1519.9400, -92.221
1519.9600, -83.124
1519.9800, -85.094
1520.0000, -83.669
1520.0200, -85.242
1520.0400, -87.297
1520.0600, -85.900
1520.0800, -84.168
1520.1000,-210.000
1520.1200, -84.077
1520.1400, -83.300
1520.1600, -88.052
1520.1800,-210.000
1520.2000, -83.155
1520.2200, -84.363
1520.2400, -81.928
1520.2600, -93.901
1520.2800, -92.226
1520.3000, -90.517
1520.3200, -84.407
1520.3400,-210.000
1520.3600, -81.016
1520.3800, -83.934
1520.4000, -84.698
1520.4200, -81.767
1520.4400, -86.976
1520.4600, -84.581
1520.4800,-210.000
1520.5000, -82.513
1520.5200,-210.000
1520.5400, -84.252
1520.5600,-210.000
1520.5800, -80.607
1520.6000, -92.067
1520.6200, -84.036
