70BCSV 	
// AQ6370B OPTICAL SPECTRUM ANALYZER //                 
25
"CTRWL",1550.000000
"SPAN", 100.000000
"START WL",1500.000000
"STOP WL",1600.000000
"WLFREQ", 0
"REFL",-62.8
"LSCL", 5.0
"RESLN",0.100
"AVG",   1
"SMPLAUTO",      0
"SMPL",       5001
"SMPLINTVL",0.0200
"HIGH1"
"MEAS"
"LSUNT",0
"NMSKH","OFF"
"RESCOR",0
"RESPARM", 9050
"FREQPARM", 9050






"[TRACE DATA]"
1500.0000, -70.346
1500.0200, -70.336
1500.0400, -70.079
1500.0600, -70.383
1500.0800, -70.124
1500.1000, -70.399
1500.1200, -70.011
1500.1400, -70.427
1500.1600, -70.030
1500.1800, -70.382
1500.2000, -70.273
1500.2200, -70.160
1500.2400, -70.499
1500.2600, -70.426
1500.2800, -70.283
1500.3000, -70.273
1500.3200, -70.054
1500.3400, -70.563
1500.3600, -70.027
1500.3800, -70.388
1500.4000, -70.247
1500.4200, -70.307
1500.4400, -70.173
1500.4600, -70.299
1500.4800, -70.179
1500.5000, -70.206
1500.5200, -70.251
1500.5400, -70.154
1500.5600, -70.279
1500.5800, -70.430
1500.6000, -70.123
1500.6200, -70.091
1500.6400, -70.536
1500.6600, -70.031
1500.6800, -70.332
1500.7000, -70.110
1500.7200, -70.237
1500.7400, -70.020
1500.7600, -69.996
1500.7800, -70.240
1500.8000, -69.931
1500.8200, -70.277
1500.8400, -70.074
1500.8600, -69.998
1500.8800, -70.197
1500.9000, -70.333
1500.9200, -69.907
1500.9400, -70.255
1500.9600, -70.148
1500.9800, -70.187
1501.0000, -69.901
1501.0200, -70.158
1501.0400, -69.974
1501.0600, -70.154
1501.0800, -70.126
1501.1000, -70.039
1501.1200, -70.108
1501.1400, -70.172
1501.1600, -70.306
1501.1800, -69.916
1501.2000, -70.100
1501.2200, -70.137
1501.2400, -70.239
1501.2600, -70.115
1501.2800, -70.141
1501.3000, -70.192
1501.3200, -70.233
1501.3400, -70.210
1501.3600, -70.154
1501.3800, -70.337
1501.4000, -70.010
1501.4200, -70.019
1501.4400, -70.181
1501.4600, -70.324
1501.4800, -69.974
1501.5000, -69.935
1501.5200, -70.035
1501.5400, -70.365
1501.5600, -69.982
1501.5800, -70.329
1501.6000, -70.119
1501.6200, -69.904
1501.6400, -70.180
1501.6600, -70.054
1501.6800, -70.167
1501.7000, -69.910
1501.7200, -70.365
1501.7400, -69.781
1501.7600, -69.915
1501.7800, -69.818
1501.8000, -70.044
1501.8200, -69.916
1501.8400, -69.990
1501.8600, -69.965
1501.8800, -70.030
1501.9000, -70.116
1501.9200, -69.910
1501.9400, -70.036
1501.9600, -69.995
1501.9800, -69.842
1502.0000, -70.084
1502.0200, -69.960
1502.0400, -69.938
1502.0600, -69.894
1502.0800, -69.988
1502.1000, -70.072
1502.1200, -70.228
1502.1400, -69.857
1502.1600, -69.928
1502.1800, -69.899
1502.2000, -69.904
1502.2200, -69.865
1502.2400, -70.234
1502.2600, -70.002
1502.2800, -70.051
1502.3000, -70.021
1502.3200, -70.027
1502.3400, -69.865
1502.3600, -69.905
1502.3800, -70.201
1502.4000, -69.811
1502.4200, -69.850
1502.4400, -69.905
1502.4600, -70.136
1502.4800, -69.971
1502.5000, -69.825
1502.5200, -69.960
1502.5400, -69.839
1502.5600, -69.815
1502.5800, -69.959
1502.6000, -69.926
1502.6200, -69.915
1502.6400, -69.764
1502.6600, -70.031
1502.6800, -69.931
1502.7000, -69.974
1502.7200, -69.832
1502.7400, -69.771
1502.7600, -69.732
1502.7800, -69.921
1502.8000, -69.821
1502.8200, -69.805
1502.8400, -69.775
1502.8600, -69.804
1502.8800, -70.015
1502.9000, -69.665
1502.9200, -69.776
1502.9400, -69.887
1502.9600, -69.537
1502.9800, -69.868
1503.0000, -69.808
1503.0200, -69.740
1503.0400, -69.756
1503.0600, -69.745
1503.0800, -69.932
1503.1000, -69.900
1503.1200, -69.839
1503.1400, -69.803
1503.1600, -69.890
1503.1800, -69.893
1503.2000, -69.889
1503.2200, -69.824
1503.2400, -69.859
1503.2600, -69.933
1503.2800, -69.858
1503.3000, -69.935
1503.3200, -69.736
1503.3400, -69.841
1503.3600, -69.890
1503.3800, -69.877
1503.4000, -69.670
1503.4200, -69.714
1503.4400, -69.746
1503.4600, -69.750
1503.4800, -69.737
1503.5000, -69.810
1503.5200, -69.716
1503.5400, -70.027
1503.5600, -69.627
1503.5800, -69.546
1503.6000, -69.666
1503.6200, -69.752
1503.6400, -69.683
1503.6600, -69.618
1503.6800, -69.541
1503.7000, -69.791
1503.7200, -69.573
1503.7400, -69.647
1503.7600, -69.726
1503.7800, -69.563
1503.8000, -69.626
1503.8200, -69.641
1503.8400, -69.459
1503.8600, -69.724
1503.8800, -69.621
1503.9000, -69.990
1503.9200, -69.550
1503.9400, -69.507
1503.9600, -69.653
1503.9800, -69.633
1504.0000, -69.630
1504.0200, -69.820
1504.0400, -69.783
1504.0600, -69.757
1504.0800, -69.629
1504.1000, -69.759
1504.1200, -69.635
1504.1400, -69.556
1504.1600, -69.659
1504.1800, -69.840
1504.2000, -69.754
1504.2200, -69.854
1504.2400, -69.706
1504.2600, -69.692
1504.2800, -69.669
1504.3000, -69.660
1504.3200, -69.659
1504.3400, -69.720
1504.3600, -69.646
1504.3800, -69.566
1504.4000, -69.595
1504.4200, -69.847
1504.4400, -69.623
1504.4600, -69.403
1504.4800, -69.695
1504.5000, -69.642
1504.5200, -69.600
1504.5400, -69.506
1504.5600, -69.645
1504.5800, -69.649
1504.6000, -69.342
1504.6200, -69.302
1504.6400, -69.570
1504.6600, -69.489
1504.6800, -69.501
1504.7000, -69.580
1504.7200, -69.411
1504.7400, -69.395
1504.7600, -69.526
1504.7800, -69.417
1504.8000, -69.396
1504.8200, -69.630
1504.8400, -69.342
1504.8600, -69.515
1504.8800, -69.481
1504.9000, -69.688
1504.9200, -69.528
1504.9400, -69.485
1504.9600, -69.289
1504.9800, -69.585
1505.0000, -69.464
1505.0200, -69.544
1505.0400, -69.481
1505.0600, -69.334
1505.0800, -69.655
1505.1000, -69.506
1505.1200, -69.483
1505.1400, -69.571
1505.1600, -69.541
1505.1800, -69.739
1505.2000, -69.337
1505.2200, -69.450
1505.2400, -69.564
1505.2600, -69.502
1505.2800, -69.450
1505.3000, -69.605
1505.3200, -69.552
1505.3400, -69.419
1505.3600, -69.553
1505.3800, -69.353
1505.4000, -69.462
1505.4200, -69.433
1505.4400, -69.315
1505.4600, -69.450
1505.4800, -69.367
1505.5000, -69.313
1505.5200, -69.374
1505.5400, -69.502
1505.5600, -69.443
1505.5800, -69.149
1505.6000, -69.316
1505.6200, -69.344
1505.6400, -69.166
1505.6600, -69.412
1505.6800, -69.325
1505.7000, -69.255
1505.7200, -69.250
1505.7400, -69.168
1505.7600, -69.241
1505.7800, -69.213
1505.8000, -69.313
1505.8200, -69.292
1505.8400, -69.227
1505.8600, -69.316
1505.8800, -69.274
1505.9000, -69.177
1505.9200, -69.292
1505.9400, -69.293
1505.9600, -69.342
1505.9800, -69.459
1506.0000, -69.167
1506.0200, -69.413
1506.0400, -69.263
1506.0600, -69.234
1506.0800, -69.400
1506.1000, -69.343
1506.1200, -69.457
1506.1400, -69.386
1506.1600, -69.441
1506.1800, -69.321
1506.2000, -69.403
1506.2200, -69.228
1506.2400, -69.314
1506.2600, -69.299
1506.2800, -69.245
1506.3000, -69.329
1506.3200, -69.377
1506.3400, -69.388
1506.3600, -69.019
1506.3800, -69.436
1506.4000, -69.173
1506.4200, -69.465
1506.4400, -69.236
1506.4600, -69.233
1506.4800, -69.343
1506.5000, -69.110
1506.5200, -69.232
1506.5400, -69.143
1506.5600, -69.273
1506.5800, -69.075
1506.6000, -69.241
1506.6200, -69.271
1506.6400, -69.055
1506.6600, -69.265
1506.6800, -69.012
1506.7000, -69.114
1506.7200, -69.148
1506.7400, -69.209
1506.7600, -69.151
1506.7800, -69.121
1506.8000, -69.047
1506.8200, -69.286
1506.8400, -69.162
1506.8600, -69.116
1506.8800, -69.165
1506.9000, -69.121
1506.9200, -69.118
1506.9400, -69.054
1506.9600, -69.122
1506.9800, -69.311
1507.0000, -69.237
1507.0200, -68.996
1507.0400, -69.257
1507.0600, -69.330
1507.0800, -69.223
1507.1000, -69.231
1507.1200, -69.248
1507.1400, -69.033
1507.1600, -69.228
1507.1800, -69.370
1507.2000, -69.055
1507.2200, -69.264
1507.2400, -69.132
1507.2600, -69.164
1507.2800, -69.141
1507.3000, -69.028
1507.3200, -69.025
1507.3400, -69.105
1507.3600, -69.025
1507.3800, -69.142
1507.4000, -69.124
1507.4200, -69.123
1507.4400, -69.144
1507.4600, -69.039
1507.4800, -68.976
1507.5000, -68.853
1507.5200, -68.986
1507.5400, -69.138
1507.5600, -68.937
1507.5800, -69.056
1507.6000, -68.883
1507.6200, -68.823
1507.6400, -69.012
1507.6600, -68.893
1507.6800, -68.974
1507.7000, -68.869
1507.7200, -68.905
1507.7400, -69.012
1507.7600, -69.012
1507.7800, -69.069
1507.8000, -69.090
1507.8200, -68.841
1507.8400, -69.020
1507.8600, -69.062
1507.8800, -69.005
1507.9000, -68.885
1507.9200, -69.084
1507.9400, -69.055
1507.9600, -68.996
1507.9800, -69.062
1508.0000, -68.961
1508.0200, -69.030
1508.0400, -69.085
1508.0600, -69.056
1508.0800, -69.227
1508.1000, -68.964
1508.1200, -68.871
1508.1400, -69.119
1508.1600, -68.925
1508.1800, -68.901
1508.2000, -69.062
1508.2200, -68.867
1508.2400, -68.917
1508.2600, -69.040
1508.2800, -68.942
1508.3000, -68.930
1508.3200, -68.919
1508.3400, -68.968
1508.3600, -68.896
1508.3800, -68.947
1508.4000, -69.059
1508.4200, -68.595
1508.4400, -68.945
1508.4600, -68.870
1508.4800, -68.946
1508.5000, -68.971
1508.5200, -68.869
1508.5400, -68.664
1508.5600, -68.763
1508.5800, -68.643
1508.6000, -68.951
1508.6200, -68.778
1508.6400, -68.922
1508.6600, -68.772
1508.6800, -68.842
1508.7000, -68.745
1508.7200, -68.813
1508.7400, -69.046
1508.7600, -68.710
1508.7800, -68.858
1508.8000, -68.730
1508.8200, -68.847
1508.8400, -68.991
1508.8600, -68.813
1508.8800, -68.834
1508.9000, -68.984
1508.9200, -68.756
1508.9400, -68.980
1508.9600, -68.962
1508.9800, -69.010
1509.0000, -68.810
1509.0200, -68.792
1509.0400, -68.903
1509.0600, -68.864
1509.0800, -68.973
1509.1000, -68.784
1509.1200, -68.845
1509.1400, -68.877
1509.1600, -68.922
1509.1800, -68.961
1509.2000, -68.614
1509.2200, -68.824
1509.2400, -68.809
1509.2600, -68.714
1509.2800, -68.795
1509.3000, -68.725
1509.3200, -68.665
1509.3400, -68.879
1509.3600, -68.648
1509.3800, -68.664
1509.4000, -68.667
1509.4200, -68.558
1509.4400, -68.665
1509.4600, -68.645
1509.4800, -68.656
1509.5000, -68.686
1509.5200, -68.490
1509.5400, -68.725
1509.5600, -68.864
1509.5800, -68.647
1509.6000, -68.596
1509.6200, -68.678
1509.6400, -68.584
1509.6600, -68.691
1509.6800, -68.612
1509.7000, -68.565
1509.7200, -68.718
1509.7400, -68.684
1509.7600, -68.723
1509.7800, -68.558
1509.8000, -68.708
1509.8200, -68.683
1509.8400, -68.722
1509.8600, -68.791
1509.8800, -68.737
1509.9000, -68.785
1509.9200, -68.710
1509.9400, -68.713
1509.9600, -68.685
1509.9800, -68.835
1510.0000, -68.868
1510.0200, -68.765
1510.0400, -68.631
1510.0600, -68.757
1510.0800, -68.705
1510.1000, -68.610
1510.1200, -68.590
1510.1400, -68.851
1510.1600, -68.653
1510.1800, -68.834
1510.2000, -68.546
1510.2200, -68.652
1510.2400, -68.554
1510.2600, -68.653
1510.2800, -68.645
1510.3000, -68.597
1510.3200, -68.371
1510.3400, -68.699
1510.3600, -68.561
1510.3800, -68.442
1510.4000, -68.454
1510.4200, -68.529
1510.4400, -68.499
1510.4600, -68.571
1510.4800, -68.409
1510.5000, -68.438
1510.5200, -68.455
1510.5400, -68.497
1510.5600, -68.525
1510.5800, -68.447
1510.6000, -68.483
1510.6200, -68.465
1510.6400, -68.511
1510.6600, -68.528
1510.6800, -68.549
1510.7000, -68.465
1510.7200, -68.529
1510.7400, -68.493
1510.7600, -68.702
1510.7800, -68.506
1510.8000, -68.528
1510.8200, -68.497
1510.8400, -68.450
1510.8600, -68.578
1510.8800, -68.586
1510.9000, -68.605
1510.9200, -68.480
1510.9400, -68.716
1510.9600, -68.368
1510.9800, -68.535
1511.0000, -68.466
1511.0200, -68.492
1511.0400, -68.398
1511.0600, -68.456
1511.0800, -68.495
1511.1000, -68.534
1511.1200, -68.448
1511.1400, -68.422
1511.1600, -68.406
1511.1800, -68.341
1511.2000, -68.304
1511.2200, -68.394
1511.2400, -68.455
1511.2600, -68.312
1511.2800, -68.316
1511.3000, -68.283
1511.3200, -68.281
1511.3400, -68.283
1511.3600, -68.351
1511.3800, -68.241
1511.4000, -68.375
1511.4200, -68.189
1511.4400, -68.385
1511.4600, -68.158
1511.4800, -68.276
1511.5000, -68.222
1511.5200, -68.326
1511.5400, -68.209
1511.5600, -68.270
1511.5800, -68.243
1511.6000, -68.260
1511.6200, -68.165
1511.6400, -68.213
1511.6600, -68.309
1511.6800, -68.323
1511.7000, -68.284
1511.7200, -68.423
1511.7400, -68.255
1511.7600, -68.286
1511.7800, -68.180
1511.8000, -68.310
1511.8200, -68.491
1511.8400, -68.354
1511.8600, -68.241
1511.8800, -68.213
1511.9000, -68.403
1511.9200, -68.256
1511.9400, -68.292
1511.9600, -68.421
1511.9800, -68.174
1512.0000, -68.245
1512.0200, -68.177
1512.0400, -68.351
1512.0600, -68.211
1512.0800, -68.043
1512.1000, -68.181
1512.1200, -68.272
1512.1400, -68.279
1512.1600, -68.023
1512.1800, -68.135
1512.2000, -68.196
1512.2200, -68.146
1512.2400, -68.251
1512.2600, -68.015
1512.2800, -68.047
1512.3000, -68.074
1512.3200, -68.032
1512.3400, -68.001
1512.3600, -67.960
1512.3800, -68.112
1512.4000, -68.146
1512.4200, -67.888
1512.4400, -68.154
1512.4600, -68.087
1512.4800, -67.956
1512.5000, -68.121
1512.5200, -67.962
1512.5400, -68.029
1512.5600, -68.043
1512.5800, -68.092
1512.6000, -68.045
1512.6200, -68.135
1512.6400, -68.085
1512.6600, -68.139
1512.6800, -68.135
1512.7000, -68.079
1512.7200, -68.103
1512.7400, -68.359
1512.7600, -67.979
1512.7800, -68.162
1512.8000, -68.092
1512.8200, -68.141
1512.8400, -68.054
1512.8600, -68.115
1512.8800, -68.084
1512.9000, -68.185
1512.9200, -68.210
1512.9400, -68.071
1512.9600, -68.042
1512.9800, -68.098
1513.0000, -68.081
1513.0200, -68.170
1513.0400, -67.858
1513.0600, -67.904
1513.0800, -67.930
1513.1000, -67.963
1513.1200, -67.954
1513.1400, -67.939
1513.1600, -67.973
1513.1800, -67.933
1513.2000, -67.861
1513.2200, -67.880
1513.2400, -67.968
1513.2600, -67.661
1513.2800, -67.870
1513.3000, -67.809
1513.3200, -67.893
1513.3400, -67.949
1513.3600, -67.773
1513.3800, -67.768
1513.4000, -67.873
1513.4200, -67.693
1513.4400, -67.814
1513.4600, -67.955
1513.4800, -67.713
1513.5000, -67.807
1513.5200, -67.784
1513.5400, -67.850
1513.5600, -67.871
1513.5800, -67.892
1513.6000, -68.054
1513.6200, -67.823
1513.6400, -67.959
1513.6600, -68.053
1513.6800, -67.758
1513.7000, -67.952
1513.7200, -67.742
1513.7400, -67.927
1513.7600, -67.889
1513.7800, -67.829
1513.8000, -67.898
1513.8200, -67.893
1513.8400, -67.877
1513.8600, -67.854
1513.8800, -67.807
1513.9000, -67.749
1513.9200, -67.799
1513.9400, -67.902
1513.9600, -67.723
1513.9800, -67.775
1514.0000, -67.712
1514.0200, -67.769
1514.0400, -67.717
1514.0600, -67.736
1514.0800, -67.755
1514.1000, -67.688
1514.1200, -67.605
1514.1400, -67.725
1514.1600, -67.720
1514.1800, -67.760
1514.2000, -67.614
1514.2200, -67.686
1514.2400, -67.510
1514.2600, -67.477
1514.2800, -67.613
1514.3000, -67.680
1514.3200, -67.685
1514.3400, -67.571
1514.3600, -67.578
1514.3800, -67.576
1514.4000, -67.665
1514.4200, -67.586
1514.4400, -67.665
1514.4600, -67.661
1514.4800, -67.619
1514.5000, -67.652
1514.5200, -67.712
1514.5400, -67.695
1514.5600, -67.654
1514.5800, -67.606
1514.6000, -67.718
1514.6200, -67.690
1514.6400, -67.595
1514.6600, -67.676
1514.6800, -67.640
1514.7000, -67.834
1514.7200, -67.522
1514.7400, -67.728
1514.7600, -67.761
1514.7800, -67.467
1514.8000, -67.639
1514.8200, -67.587
1514.8400, -67.709
1514.8600, -67.555
1514.8800, -67.557
1514.9000, -67.602
1514.9200, -67.626
1514.9400, -67.493
1514.9600, -67.497
1514.9800, -67.428
1515.0000, -67.378
1515.0200, -67.422
1515.0400, -67.493
1515.0600, -67.448
1515.0800, -67.452
1515.1000, -67.475
1515.1200, -67.374
1515.1400, -67.437
1515.1600, -67.458
1515.1800, -67.326
1515.2000, -67.296
1515.2200, -67.310
1515.2400, -67.370
1515.2600, -67.412
1515.2800, -67.251
1515.3000, -67.349
1515.3200, -67.354
1515.3400, -67.451
1515.3600, -67.436
1515.3800, -67.293
1515.4000, -67.429
1515.4200, -67.365
1515.4400, -67.355
1515.4600, -67.279
1515.4800, -67.469
1515.5000, -67.527
1515.5200, -67.230
1515.5400, -67.597
1515.5600, -67.435
1515.5800, -67.270
1515.6000, -67.443
1515.6200, -67.604
1515.6400, -67.471
1515.6600, -67.425
1515.6800, -67.507
1515.7000, -67.481
1515.7200, -67.426
1515.7400, -67.149
1515.7600, -67.400
1515.7800, -67.368
1515.8000, -67.329
1515.8200, -67.333
1515.8400, -67.464
1515.8600, -67.170
1515.8800, -67.275
1515.9000, -67.209
1515.9200, -67.273
1515.9400, -67.157
1515.9600, -67.244
1515.9800, -67.228
1516.0000, -67.220
1516.0200, -67.152
1516.0400, -67.164
1516.0600, -67.165
1516.0800, -67.100
1516.1000, -67.141
1516.1200, -67.124
1516.1400, -67.144
1516.1600, -67.003
1516.1800, -67.123
1516.2000, -67.043
1516.2200, -67.091
1516.2400, -67.079
1516.2600, -67.016
1516.2800, -66.964
1516.3000, -67.192
1516.3200, -67.064
1516.3400, -67.102
1516.3600, -67.110
1516.3800, -67.157
1516.4000, -67.052
1516.4200, -67.163
1516.4400, -67.138
1516.4600, -67.244
1516.4800, -67.045
1516.5000, -67.159
1516.5200, -67.136
1516.5400, -67.208
1516.5600, -67.002
1516.5800, -67.294
1516.6000, -67.103
1516.6200, -67.115
1516.6400, -67.246
1516.6600, -66.981
1516.6800, -67.078
1516.7000, -67.117
1516.7200, -67.180
1516.7400, -67.087
1516.7600, -67.018
1516.7800, -66.982
1516.8000, -66.995
1516.8200, -67.004
1516.8400, -66.912
1516.8600, -66.981
1516.8800, -66.887
1516.9000, -66.900
1516.9200, -66.863
1516.9400, -66.963
1516.9600, -66.889
1516.9800, -66.820
1517.0000, -66.887
1517.0200, -66.933
1517.0400, -66.657
1517.0600, -66.732
1517.0800, -66.803
1517.1000, -66.771
1517.1200, -66.773
1517.1400, -66.804
1517.1600, -66.778
1517.1800, -66.706
1517.2000, -66.733
1517.2200, -66.797
1517.2400, -66.729
1517.2600, -66.808
1517.2800, -66.663
1517.3000, -66.773
1517.3200, -66.916
1517.3400, -66.706
1517.3600, -66.739
1517.3800, -66.846
1517.4000, -66.787
1517.4200, -66.876
1517.4400, -66.940
1517.4600, -66.791
1517.4800, -66.823
1517.5000, -66.833
1517.5200, -66.803
1517.5400, -66.819
1517.5600, -66.773
1517.5800, -66.700
1517.6000, -66.838
1517.6200, -66.807
1517.6400, -66.910
1517.6600, -66.688
1517.6800, -66.644
1517.7000, -66.655
1517.7200, -66.756
1517.7400, -66.601
1517.7600, -66.665
1517.7800, -66.612
1517.8000, -66.562
1517.8200, -66.582
1517.8400, -66.558
1517.8600, -66.645
1517.8800, -66.513
1517.9000, -66.460
1517.9200, -66.477
1517.9400, -66.495
1517.9600, -66.410
1517.9800, -66.461
1518.0000, -66.496
1518.0200, -66.429
1518.0400, -66.446
1518.0600, -66.498
1518.0800, -66.315
1518.1000, -66.395
1518.1200, -66.320
1518.1400, -66.519
1518.1600, -66.329
1518.1800, -66.508
1518.2000, -66.407
1518.2200, -66.396
1518.2400, -66.333
1518.2600, -66.425
1518.2800, -66.451
1518.3000, -66.402
1518.3200, -66.452
1518.3400, -66.543
1518.3600, -66.400
1518.3800, -66.540
1518.4000, -66.444
1518.4200, -66.430
1518.4400, -66.500
1518.4600, -66.444
1518.4800, -66.487
1518.5000, -66.426
1518.5200, -66.390
1518.5400, -66.408
1518.5600, -66.399
1518.5800, -66.343
1518.6000, -66.349
1518.6200, -66.348
1518.6400, -66.307
1518.6600, -66.296
1518.6800, -66.259
1518.7000, -66.267
1518.7200, -66.274
1518.7400, -66.221
1518.7600, -66.228
1518.7800, -66.130
1518.8000, -66.196
1518.8200, -66.145
1518.8400, -66.264
1518.8600, -66.143
1518.8800, -66.044
1518.9000, -66.124
1518.9200, -66.108
1518.9400, -66.014
1518.9600, -66.050
1518.9800, -65.925
1519.0000, -65.964
1519.0200, -66.026
1519.0400, -66.008
1519.0600, -66.011
1519.0800, -65.967
1519.1000, -65.971
1519.1200, -66.007
1519.1400, -65.990
1519.1600, -66.003
1519.1800, -66.055
1519.2000, -65.989
1519.2200, -66.057
1519.2400, -66.049
1519.2600, -66.110
1519.2800, -66.047
1519.3000, -66.051
1519.3200, -65.979
1519.3400, -66.029
1519.3600, -66.054
1519.3800, -66.047
1519.4000, -66.062
1519.4200, -66.043
1519.4400, -65.938
1519.4600, -66.011
1519.4800, -65.910
1519.5000, -66.004
1519.5200, -66.007
1519.5400, -65.896
1519.5600, -65.926
1519.5800, -65.939
1519.6000, -65.751
1519.6200, -65.823
1519.6400, -65.911
1519.6600, -65.791
1519.6800, -65.735
1519.7000, -65.694
1519.7200, -65.670
1519.7400, -65.715
1519.7600, -65.691
1519.7800, -65.632
1519.8000, -65.658
1519.8200, -65.636
1519.8400, -65.576
1519.8600, -65.576
1519.8800, -65.558
1519.9000, -65.509
1519.9200, -65.553
1519.9400, -65.539
1519.9600, -65.542
1519.9800, -65.434
1520.0000, -65.496
1520.0200, -65.535
1520.0400, -65.497
1520.0600, -65.492
1520.0800, -65.527
1520.1000, -65.461
1520.1200, -65.495
1520.1400, -65.510
1520.1600, -65.605
1520.1800, -65.603
1520.2000, -65.423
1520.2200, -65.649
1520.2400, -65.513
1520.2600, -65.607
1520.2800, -65.480
1520.3000, -65.535
1520.3200, -65.631
1520.3400, -65.511
1520.3600, -65.445
1520.3800, -65.552
1520.4000, -65.429
1520.4200, -65.519
1520.4400, -65.355
1520.4600, -65.478
1520.4800, -65.367
1520.5000, -65.403
1520.5200, -65.308
1520.5400, -65.320
1520.5600, -65.303
1520.5800, -65.283
1520.6000, -65.207
1520.6200, -65.200
