70BCSV 	
// AQ6370B OPTICAL SPECTRUM ANALYZER //                 
25
"CTRWL",1550.000000
"SPAN", 100.000000
"START WL",1500.000000
"STOP WL",1600.000000
"WLFREQ", 0
"REFL",-26.7
"LSCL", 5.0
"RESLN",0.100
"AVG",   1
"SMPLAUTO",      0
"SMPL",       5001
"SMPLINTVL",0.0200
"HIGH1"
"MEAS"
"LSUNT",0
"NMSKH","OFF"
"RESCOR",0
"RESPARM", 9050
"FREQPARM", 9050






"[TRACE DATA]"
1500.0000, -87.227
1500.0200,-210.000
1500.0400, -89.865
1500.0600, -85.712
1500.0800,-210.000
1500.1000, -84.535
1500.1200, -80.877
1500.1400, -93.704
1500.1600, -90.883
1500.1800,-210.000
1500.2000,-210.000
1500.2200, -87.165
1500.2400, -83.873
1500.2600, -87.690
1500.2800, -96.346
1500.3000,-210.000
1500.3200, -80.344
1500.3400,-210.000
1500.3600,-210.000
1500.3800,-210.000
1500.4000,-210.000
1500.4200, -84.727
1500.4400, -87.491
1500.4600, -83.533
1500.4800,-210.000
1500.5000,-210.000
1500.5200, -87.315
1500.5400,-210.000
1500.5600, -85.239
1500.5800, -89.045
1500.6000, -90.887
1500.6200, -82.103
1500.6400,-210.000
1500.6600,-210.000
1500.6800, -94.199
1500.7000, -84.632
1500.7200,-210.000
1500.7400, -86.405
1500.7600, -87.306
1500.7800, -87.758
1500.8000,-210.000
1500.8200, -90.164
1500.8400, -84.184
1500.8600, -84.144
1500.8800, -85.848
1500.9000,-210.000
1500.9200, -89.899
1500.9400, -92.194
1500.9600, -92.810
1500.9800, -85.702
1501.0000, -88.539
1501.0200, -83.397
1501.0400,-210.000
1501.0600,-210.000
1501.0800, -86.642
1501.1000, -86.702
1501.1200, -84.677
1501.1400, -87.015
1501.1600,-210.000
1501.1800,-210.000
1501.2000,-210.000
1501.2200, -81.105
1501.2400, -81.875
1501.2600,-210.000
1501.2800, -99.066
1501.3000,-210.000
1501.3200,-100.915
1501.3400, -87.064
1501.3600,-210.000
1501.3800, -87.077
1501.4000,-210.000
1501.4200, -82.985
1501.4400,-210.000
1501.4600, -85.304
1501.4800, -86.377
1501.5000, -89.163
1501.5200, -85.450
1501.5400,-210.000
1501.5600, -89.386
1501.5800, -85.248
1501.6000, -84.393
1501.6200, -86.859
1501.6400, -87.516
1501.6600,-210.000
1501.6800, -84.375
1501.7000,-210.000
1501.7200, -92.544
1501.7400, -87.798
1501.7600, -84.201
1501.7800,-210.000
1501.8000, -91.948
1501.8200, -91.484
1501.8400, -86.813
1501.8600,-210.000
1501.8800, -94.871
1501.9000, -85.002
1501.9200,-210.000
1501.9400, -82.306
1501.9600,-210.000
1501.9800, -91.631
1502.0000, -86.798
1502.0200,-210.000
1502.0400,-210.000
1502.0600, -82.875
1502.0800,-210.000
1502.1000, -85.518
1502.1200, -84.875
1502.1400,-210.000
1502.1600, -93.194
1502.1800, -89.542
1502.2000, -85.101
1502.2200, -82.908
1502.2400, -89.968
1502.2600, -88.021
1502.2800,-210.000
1502.3000, -83.870
1502.3200,-210.000
1502.3400,-210.000
1502.3600, -83.324
1502.3800,-210.000
1502.4000, -93.325
1502.4200, -88.659
1502.4400, -81.647
1502.4600,-100.077
1502.4800, -97.231
1502.5000, -91.460
1502.5200,-210.000
1502.5400, -87.962
1502.5600,-210.000
1502.5800,-210.000
1502.6000, -97.748
1502.6200, -86.416
1502.6400, -96.167
1502.6600, -86.160
1502.6800,-106.602
1502.7000, -82.334
1502.7200,-210.000
1502.7400, -87.144
1502.7600, -85.439
1502.7800,-210.000
1502.8000, -84.237
1502.8200,-210.000
1502.8400, -85.347
1502.8600, -91.230
1502.8800, -84.463
1502.9000, -87.452
1502.9200, -87.556
1502.9400, -86.045
1502.9600, -88.511
1502.9800, -85.120
1503.0000, -85.588
1503.0200,-210.000
1503.0400,-100.024
1503.0600, -82.872
1503.0800,-210.000
1503.1000, -81.691
1503.1200,-210.000
1503.1400, -86.324
1503.1600, -85.462
1503.1800,-210.000
1503.2000, -88.146
1503.2200,-210.000
1503.2400,-210.000
1503.2600, -82.887
1503.2800, -85.083
1503.3000,-210.000
1503.3200, -90.104
1503.3400, -83.209
1503.3600, -91.958
1503.3800, -83.844
1503.4000,-210.000
1503.4200, -88.001
1503.4400, -85.705
1503.4600, -89.133
1503.4800,-210.000
1503.5000, -82.226
1503.5200,-210.000
1503.5400, -84.989
1503.5600, -86.413
1503.5800, -91.874
1503.6000, -85.436
1503.6200,-210.000
1503.6400, -84.206
1503.6600, -89.955
1503.6800,-210.000
1503.7000, -93.288
1503.7200,-210.000
1503.7400, -86.715
1503.7600, -87.692
1503.7800, -80.645
1503.8000,-210.000
1503.8200, -83.504
1503.8400,-210.000
1503.8600, -90.474
1503.8800, -86.141
1503.9000, -86.019
1503.9200, -84.765
1503.9400,-210.000
1503.9600, -84.080
1503.9800,-210.000
1504.0000, -83.898
1504.0200,-210.000
1504.0400, -84.124
1504.0600, -84.118
1504.0800,-210.000
1504.1000, -84.130
1504.1200, -94.611
1504.1400,-210.000
1504.1600,-210.000
1504.1800, -84.359
1504.2000, -85.773
1504.2200,-210.000
1504.2400,-210.000
1504.2600, -85.236
1504.2800, -84.155
1504.3000,-210.000
1504.3200, -85.302
1504.3400,-210.000
1504.3600, -90.361
1504.3800, -91.415
1504.4000,-210.000
1504.4200, -80.887
1504.4400,-210.000
1504.4600,-210.000
1504.4800, -87.522
1504.5000, -83.005
1504.5200, -89.935
1504.5400,-210.000
1504.5600,-210.000
1504.5800,-210.000
1504.6000, -83.702
1504.6200, -83.609
1504.6400,-210.000
1504.6600,-210.000
1504.6800, -84.081
1504.7000,-210.000
1504.7200, -87.787
1504.7400, -81.489
1504.7600, -87.220
1504.7800,-210.000
1504.8000, -85.650
1504.8200, -86.036
1504.8400, -91.323
1504.8600,-210.000
1504.8800, -90.661
1504.9000, -89.269
1504.9200, -84.593
1504.9400,-104.467
1504.9600,-210.000
1504.9800, -88.207
1505.0000, -85.578
1505.0200,-210.000
1505.0400, -87.103
1505.0600, -86.504
1505.0800, -85.762
1505.1000, -88.949
1505.1200, -86.223
1505.1400, -82.289
1505.1600, -93.410
1505.1800, -82.116
1505.2000, -85.560
1505.2200, -84.649
1505.2400,-210.000
1505.2600, -80.797
1505.2800,-210.000
1505.3000, -86.508
1505.3200, -85.452
1505.3400,-210.000
1505.3600, -94.109
1505.3800, -84.696
1505.4000,-210.000
1505.4200,-210.000
1505.4400, -84.821
1505.4600,-210.000
1505.4800, -81.886
1505.5000, -86.710
1505.5200, -85.858
1505.5400,-210.000
1505.5600, -81.979
1505.5800,-210.000
1505.6000, -85.431
1505.6200,-210.000
1505.6400,-210.000
1505.6600,-210.000
1505.6800,-210.000
1505.7000, -80.445
1505.7200, -99.893
1505.7400, -88.744
1505.7600,-210.000
1505.7800, -83.527
1505.8000, -88.592
1505.8200,-210.000
1505.8400, -82.609
1505.8600,-210.000
1505.8800, -85.633
1505.9000, -96.224
1505.9200, -84.481
1505.9400, -91.657
1505.9600, -87.232
1505.9800,-210.000
1506.0000, -87.218
1506.0200, -89.895
1506.0400, -83.067
1506.0600, -99.011
1506.0800, -91.950
1506.1000, -98.092
1506.1200, -87.319
1506.1400, -87.191
1506.1600, -85.060
1506.1800,-210.000
1506.2000, -90.730
1506.2200,-210.000
1506.2400, -80.769
1506.2600,-210.000
1506.2800,-210.000
1506.3000, -82.263
1506.3200, -86.189
1506.3400,-210.000
1506.3600, -83.727
1506.3800, -87.498
1506.4000, -85.698
1506.4200, -85.529
1506.4400, -84.945
1506.4600, -98.101
1506.4800,-210.000
1506.5000,-210.000
1506.5200, -87.511
1506.5400, -83.415
1506.5600,-210.000
1506.5800, -83.063
1506.6000,-210.000
1506.6200, -82.647
1506.6400,-210.000
1506.6600, -94.591
1506.6800, -83.480
1506.7000,-210.000
1506.7200, -88.204
1506.7400,-107.522
1506.7600,-210.000
1506.7800, -85.129
1506.8000, -86.724
1506.8200, -80.927
1506.8400,-210.000
1506.8600, -83.037
1506.8800, -89.424
1506.9000, -83.860
1506.9200, -87.193
1506.9400, -90.092
1506.9600, -95.676
1506.9800,-210.000
1507.0000, -82.672
1507.0200, -89.759
1507.0400,-210.000
1507.0600, -88.624
1507.0800, -87.070
1507.1000,-210.000
1507.1200,-210.000
1507.1400, -87.040
1507.1600,-210.000
1507.1800, -83.744
1507.2000,-210.000
1507.2200, -82.620
1507.2400, -83.049
1507.2600,-210.000
1507.2800, -87.616
1507.3000, -97.067
1507.3200, -85.123
1507.3400,-210.000
1507.3600, -87.329
1507.3800, -83.793
1507.4000, -90.701
1507.4200, -86.224
1507.4400,-210.000
1507.4600, -81.783
1507.4800,-210.000
1507.5000, -89.554
1507.5200, -88.934
1507.5400, -84.179
1507.5600, -99.666
1507.5800, -82.150
1507.6000,-210.000
1507.6200,-210.000
1507.6400,-210.000
1507.6600,-210.000
1507.6800, -86.133
1507.7000,-210.000
1507.7200, -81.874
1507.7400, -91.398
1507.7600, -83.871
1507.7800,-210.000
1507.8000, -83.227
1507.8200,-210.000
1507.8400,-210.000
1507.8600, -91.821
1507.8800,-210.000
1507.9000, -83.981
1507.9200, -83.895
1507.9400,-210.000
1507.9600,-210.000
1507.9800,-210.000
1508.0000, -87.490
1508.0200, -88.558
1508.0400,-210.000
1508.0600, -86.165
1508.0800,-210.000
1508.1000, -91.816
1508.1200, -85.863
1508.1400, -93.279
1508.1600, -85.564
1508.1800, -86.962
1508.2000, -83.960
1508.2200,-210.000
1508.2400, -82.519
1508.2600, -85.845
1508.2800,-210.000
1508.3000, -92.527
1508.3200, -83.926
1508.3400, -86.924
1508.3600, -86.407
1508.3800,-210.000
1508.4000,-210.000
1508.4200, -91.826
1508.4400,-210.000
1508.4600, -84.392
1508.4800, -83.310
1508.5000, -96.065
1508.5200, -86.568
1508.5400, -94.077
1508.5600, -85.679
1508.5800, -86.649
1508.6000, -86.184
1508.6200, -85.079
1508.6400, -86.321
1508.6600, -92.134
1508.6800,-210.000
1508.7000, -84.744
1508.7200, -82.229
1508.7400,-210.000
1508.7600, -88.651
1508.7800, -91.369
1508.8000, -83.352
1508.8200,-210.000
1508.8400, -85.077
1508.8600, -86.870
1508.8800, -86.646
1508.9000, -88.745
1508.9200, -86.642
1508.9400, -83.404
1508.9600,-210.000
1508.9800, -83.398
1509.0000,-210.000
1509.0200,-210.000
1509.0400, -84.776
1509.0600, -91.840
1509.0800,-210.000
1509.1000, -83.813
1509.1200, -84.132
1509.1400, -92.504
1509.1600,-210.000
1509.1800,-210.000
1509.2000, -88.335
1509.2200, -84.196
1509.2400, -83.123
1509.2600, -88.873
1509.2800, -81.894
1509.3000,-210.000
1509.3200, -83.125
1509.3400,-210.000
1509.3600, -82.463
1509.3800, -84.736
1509.4000,-210.000
1509.4200, -85.370
1509.4400, -88.691
1509.4600, -88.252
1509.4800, -81.919
1509.5000,-210.000
1509.5200, -83.768
1509.5400, -83.352
1509.5600,-210.000
1509.5800,-105.262
1509.6000, -90.639
1509.6200, -89.536
1509.6400, -85.033
1509.6600, -81.112
1509.6800,-210.000
1509.7000,-210.000
1509.7200, -82.638
1509.7400,-210.000
1509.7600, -83.802
1509.7800, -87.367
1509.8000, -88.607
1509.8200, -90.387
1509.8400,-210.000
1509.8600,-105.109
1509.8800, -87.941
1509.9000, -84.765
1509.9200,-210.000
1509.9400,-210.000
1509.9600,-210.000
1509.9800, -87.669
1510.0000, -80.970
1510.0200,-210.000
1510.0400, -92.916
1510.0600, -86.280
1510.0800, -89.543
1510.1000,-210.000
1510.1200, -84.619
1510.1400,-210.000
1510.1600, -86.152
1510.1800,-210.000
1510.2000,-210.000
1510.2200,-210.000
1510.2400, -84.360
1510.2600, -84.264
1510.2800,-210.000
1510.3000, -97.763
1510.3200, -84.799
1510.3400, -81.478
1510.3600, -93.206
1510.3800,-210.000
1510.4000, -81.106
1510.4200, -82.868
1510.4400,-210.000
1510.4600, -86.411
1510.4800, -85.814
1510.5000,-210.000
1510.5200, -86.198
1510.5400, -86.331
1510.5600, -92.810
1510.5800, -84.172
1510.6000,-210.000
1510.6200, -89.580
1510.6400, -87.176
1510.6600, -89.442
1510.6800,-210.000
1510.7000, -87.083
1510.7200, -87.800
1510.7400, -88.216
1510.7600, -82.031
1510.7800, -86.445
1510.8000,-210.000
1510.8200, -84.403
1510.8400, -85.851
1510.8600, -88.411
1510.8800,-210.000
1510.9000,-210.000
1510.9200,-210.000
1510.9400, -86.196
1510.9600, -84.641
1510.9800, -99.232
1511.0000, -84.327
1511.0200,-210.000
1511.0400,-210.000
1511.0600, -86.467
1511.0800,-210.000
1511.1000, -91.023
1511.1200, -85.767
1511.1400, -88.132
1511.1600, -85.849
1511.1800, -85.868
1511.2000, -88.587
1511.2200,-210.000
1511.2400, -81.398
1511.2600,-210.000
1511.2800, -84.148
1511.3000, -86.564
1511.3200, -85.001
1511.3400,-210.000
1511.3600, -81.811
1511.3800, -95.459
1511.4000, -88.528
1511.4200, -80.752
1511.4400,-210.000
1511.4600, -80.393
1511.4800, -98.549
1511.5000,-210.000
1511.5200, -87.994
1511.5400, -85.163
1511.5600, -84.318
1511.5800, -88.271
1511.6000,-210.000
1511.6200, -80.105
1511.6400, -82.918
1511.6600,-210.000
1511.6800,-210.000
1511.7000,-210.000
1511.7200, -89.734
1511.7400, -93.310
1511.7600, -81.389
1511.7800,-210.000
1511.8000,-210.000
1511.8200, -82.254
1511.8400,-210.000
1511.8600, -86.338
1511.8800, -84.984
1511.9000,-210.000
1511.9200,-102.363
1511.9400, -82.317
1511.9600,-210.000
1511.9800, -93.633
1512.0000,-210.000
1512.0200, -81.263
1512.0400, -83.942
1512.0600,-210.000
1512.0800, -85.488
1512.1000,-210.000
1512.1200, -88.569
1512.1400, -85.961
1512.1600, -87.735
1512.1800,-100.134
1512.2000, -89.500
1512.2200,-210.000
1512.2400,-210.000
1512.2600, -82.767
1512.2800, -81.877
1512.3000,-210.000
1512.3200,-210.000
1512.3400,-210.000
1512.3600, -83.127
1512.3800, -87.387
1512.4000, -85.062
1512.4200, -85.076
1512.4400,-210.000
1512.4600, -81.106
1512.4800,-210.000
1512.5000, -94.042
1512.5200, -86.145
1512.5400,-100.477
1512.5600, -89.607
1512.5800,-210.000
1512.6000, -83.233
1512.6200, -86.214
1512.6400, -83.489
1512.6600, -92.175
1512.6800, -85.261
1512.7000,-210.000
1512.7200, -89.331
1512.7400,-210.000
1512.7600, -83.792
1512.7800, -85.354
1512.8000, -92.287
1512.8200,-210.000
1512.8400,-100.658
1512.8600, -85.270
1512.8800,-210.000
1512.9000, -88.076
1512.9200, -87.166
1512.9400,-210.000
1512.9600, -84.306
1512.9800, -89.151
1513.0000,-210.000
1513.0200, -82.708
1513.0400, -89.677
1513.0600,-210.000
1513.0800, -92.721
1513.1000, -83.406
1513.1200,-210.000
1513.1400, -85.325
1513.1600,-210.000
1513.1800, -80.268
1513.2000,-210.000
1513.2200, -88.166
1513.2400,-210.000
1513.2600, -89.448
1513.2800, -84.375
1513.3000,-210.000
1513.3200, -89.323
1513.3400, -83.376
1513.3600,-210.000
1513.3800, -82.474
1513.4000,-210.000
1513.4200,-210.000
1513.4400, -83.127
1513.4600,-210.000
1513.4800, -80.276
1513.5000, -85.234
1513.5200,-210.000
1513.5400, -88.827
1513.5600, -88.810
1513.5800,-210.000
1513.6000, -82.366
1513.6200,-210.000
1513.6400,-210.000
1513.6600, -83.476
1513.6800, -85.882
1513.7000, -85.927
1513.7200, -88.204
1513.7400, -85.164
1513.7600, -95.785
1513.7800,-210.000
1513.8000, -84.794
1513.8200,-210.000
1513.8400, -85.581
1513.8600, -90.612
1513.8800, -86.001
1513.9000, -82.117
1513.9200, -86.679
1513.9400,-210.000
1513.9600,-210.000
1513.9800, -92.318
1514.0000, -88.637
1514.0200, -85.905
1514.0400, -83.850
1514.0600,-210.000
1514.0800, -83.783
1514.1000, -91.396
1514.1200,-210.000
1514.1400, -81.920
1514.1600, -86.838
1514.1800,-210.000
1514.2000, -87.656
1514.2200, -86.123
1514.2400, -82.989
1514.2600, -85.504
1514.2800,-210.000
1514.3000, -82.051
1514.3200,-210.000
1514.3400, -85.265
1514.3600,-210.000
1514.3800, -83.317
1514.4000, -83.812
1514.4200, -93.276
1514.4400, -84.190
1514.4600,-210.000
1514.4800, -83.479
1514.5000, -83.386
1514.5200,-210.000
1514.5400, -85.401
1514.5600, -89.356
1514.5800, -95.543
1514.6000, -92.226
1514.6200, -85.399
1514.6400, -84.744
1514.6600, -81.077
1514.6800,-210.000
1514.7000,-210.000
1514.7200, -88.843
1514.7400, -85.889
1514.7600, -86.510
1514.7800, -82.031
1514.8000,-210.000
1514.8200, -88.552
1514.8400,-210.000
1514.8600, -91.652
1514.8800, -82.929
1514.9000, -88.445
1514.9200, -85.694
1514.9400, -89.632
1514.9600, -83.703
1514.9800,-210.000
1515.0000,-210.000
1515.0200, -87.132
1515.0400, -84.279
1515.0600, -82.682
1515.0800, -82.508
1515.1000, -83.933
1515.1200,-210.000
1515.1400,-210.000
1515.1600, -87.399
1515.1800,-210.000
1515.2000, -93.450
1515.2200, -80.252
1515.2400,-210.000
1515.2600, -91.839
1515.2800, -83.494
1515.3000, -84.994
1515.3200, -86.708
1515.3400, -92.633
1515.3600, -84.085
1515.3800,-210.000
1515.4000, -86.092
1515.4200, -99.042
1515.4400,-210.000
1515.4600, -87.240
1515.4800,-210.000
1515.5000, -84.807
1515.5200,-210.000
1515.5400, -85.899
1515.5600, -84.933
1515.5800,-210.000
1515.6000, -89.792
1515.6200, -87.030
1515.6400, -86.316
1515.6600, -84.595
1515.6800,-210.000
1515.7000, -96.478
1515.7200, -84.603
1515.7400,-210.000
1515.7600, -82.971
1515.7800, -86.246
1515.8000,-210.000
1515.8200, -84.658
1515.8400,-210.000
1515.8600, -83.340
1515.8800,-210.000
1515.9000, -83.764
1515.9200, -85.418
1515.9400, -85.296
1515.9600, -84.192
1515.9800, -87.496
1516.0000, -90.872
1516.0200, -87.745
1516.0400, -92.001
1516.0600, -92.283
1516.0800, -82.690
1516.1000, -97.147
1516.1200, -93.033
1516.1400, -86.250
1516.1600, -85.066
1516.1800, -84.848
1516.2000, -91.463
1516.2200, -89.106
1516.2400, -89.796
1516.2600, -93.050
1516.2800, -86.387
1516.3000, -91.342
1516.3200, -85.657
1516.3400,-210.000
1516.3600, -81.673
1516.3800, -93.819
1516.4000, -85.366
1516.4200,-210.000
1516.4400, -92.105
1516.4600, -83.027
1516.4800,-210.000
1516.5000, -84.359
1516.5200, -91.432
1516.5400,-210.000
1516.5600, -85.642
1516.5800,-108.219
1516.6000, -85.127
1516.6200, -87.926
1516.6400,-102.397
1516.6600, -84.309
1516.6800, -92.890
1516.7000, -93.276
1516.7200, -89.029
1516.7400, -89.995
1516.7600,-210.000
1516.7800,-210.000
1516.8000,-210.000
1516.8200, -80.460
1516.8400,-210.000
1516.8600, -86.946
1516.8800, -86.867
1516.9000, -87.933
1516.9200, -85.156
1516.9400, -88.196
1516.9600, -88.602
1516.9800, -89.364
1517.0000, -87.522
1517.0200,-210.000
1517.0400, -91.727
1517.0600,-210.000
1517.0800, -83.328
1517.1000,-210.000
1517.1200,-210.000
1517.1400, -82.854
1517.1600,-106.758
1517.1800,-210.000
1517.2000,-210.000
1517.2200, -84.852
1517.2400,-210.000
1517.2600, -84.692
1517.2800,-210.000
1517.3000, -84.531
1517.3200, -84.862
1517.3400, -83.862
1517.3600,-210.000
1517.3800, -87.723
1517.4000,-210.000
1517.4200, -87.275
1517.4400,-210.000
1517.4600, -83.803
1517.4800, -81.951
1517.5000, -84.831
1517.5200, -93.396
1517.5400,-210.000
1517.5600,-210.000
1517.5800, -86.638
1517.6000, -83.017
1517.6200,-210.000
1517.6400, -85.921
1517.6600, -93.702
1517.6800, -85.595
1517.7000,-210.000
1517.7200, -89.590
1517.7400,-210.000
1517.7600, -93.999
1517.7800, -92.952
1517.8000, -96.304
1517.8200, -85.554
1517.8400, -87.442
1517.8600, -80.276
1517.8800,-210.000
1517.9000, -86.071
1517.9200,-100.447
1517.9400, -83.619
1517.9600, -92.622
1517.9800, -91.375
1518.0000,-210.000
1518.0200, -85.559
1518.0400, -88.196
1518.0600, -92.967
1518.0800, -87.426
1518.1000,-210.000
1518.1200, -87.042
1518.1400,-111.990
1518.1600, -84.336
1518.1800, -84.091
1518.2000,-210.000
1518.2200, -84.942
1518.2400, -88.459
1518.2600,-210.000
1518.2800, -88.704
1518.3000, -82.836
1518.3200, -83.447
1518.3400, -86.661
1518.3600,-210.000
1518.3800, -83.087
1518.4000,-210.000
1518.4200, -87.041
1518.4400, -84.243
1518.4600, -82.973
1518.4800, -89.056
1518.5000, -91.569
1518.5200, -86.649
1518.5400, -84.654
1518.5600,-210.000
1518.5800, -85.123
1518.6000, -83.859
1518.6200, -85.950
1518.6400, -86.171
1518.6600,-210.000
1518.6800, -83.387
1518.7000,-210.000
1518.7200, -87.558
1518.7400,-210.000
1518.7600, -87.124
1518.7800, -82.096
1518.8000, -83.979
1518.8200,-210.000
1518.8400, -83.090
1518.8600,-210.000
1518.8800, -85.966
1518.9000, -85.737
1518.9200, -94.691
1518.9400,-210.000
1518.9600, -90.615
1518.9800, -84.084
1519.0000, -97.294
1519.0200, -86.980
1519.0400, -81.644
1519.0600, -84.868
1519.0800, -85.279
1519.1000, -86.536
1519.1200,-210.000
1519.1400, -91.616
1519.1600, -97.615
1519.1800, -84.845
1519.2000,-210.000
1519.2200, -80.498
1519.2400,-210.000
1519.2600, -90.277
1519.2800, -88.533
1519.3000, -97.958
1519.3200, -90.258
1519.3400, -85.892
1519.3600, -90.702
1519.3800,-210.000
1519.4000, -85.893
1519.4200, -99.010
1519.4400, -87.489
1519.4600, -87.971
1519.4800, -88.781
1519.5000,-210.000
1519.5200, -83.260
1519.5400, -97.764
1519.5600, -90.909
1519.5800,-210.000
1519.6000, -83.241
1519.6200,-100.172
1519.6400, -82.296
1519.6600,-210.000
1519.6800, -90.229
1519.7000,-210.000
1519.7200, -91.331
1519.7400, -83.062
1519.7600,-210.000
1519.7800, -96.067
1519.8000, -89.546
1519.8200, -87.339
1519.8400,-210.000
1519.8600, -88.349
1519.8800,-210.000
1519.9000, -85.797
1519.9200,-210.000
1519.9400, -81.573
1519.9600,-210.000
1519.9800, -84.015
1520.0000, -87.801
1520.0200, -87.834
1520.0400, -91.648
1520.0600, -86.301
1520.0800,-210.000
1520.1000, -84.655
1520.1200,-210.000
1520.1400, -87.485
1520.1600, -93.839
1520.1800, -89.103
1520.2000, -95.692
1520.2200, -82.830
1520.2400, -88.894
1520.2600, -92.648
1520.2800, -84.952
1520.3000,-210.000
1520.3200, -83.141
1520.3400, -89.340
1520.3600,-210.000
1520.3800,-210.000
1520.4000, -86.231
1520.4200, -87.690
1520.4400, -84.189
1520.4600,-210.000
1520.4800, -98.559
1520.5000, -87.092
1520.5200, -89.034
1520.5400, -86.646
1520.5600,-210.000
1520.5800, -87.580
1520.6000,-210.000
1520.6200,-210.000
