70BCSV 	
// AQ6370B OPTICAL SPECTRUM ANALYZER //                 
25
"CTRWL",1550.000000
"SPAN", 100.000000
"START WL",1500.000000
"STOP WL",1600.000000
"WLFREQ", 0
"REFL",-62.8
"LSCL", 5.0
"RESLN",0.100
"AVG",   1
"SMPLAUTO",      0
"SMPL",       5001
"SMPLINTVL",0.0200
"HIGH1"
"MEAS"
"LSUNT",0
"NMSKH","OFF"
"RESCOR",0
"RESPARM", 9050
"FREQPARM", 9050






"[TRACE DATA]"
1500.0000, -84.291
1500.0200, -94.607
1500.0400,-210.000
1500.0600, -85.261
1500.0800, -84.346
1500.1000,-100.374
1500.1200, -98.521
1500.1400, -84.165
1500.1600, -85.187
1500.1800, -88.561
1500.2000, -83.008
1500.2200,-210.000
1500.2400, -81.361
1500.2600,-210.000
1500.2800,-210.000
1500.3000,-210.000
1500.3200,-210.000
1500.3400,-210.000
1500.3600, -82.047
1500.3800,-210.000
1500.4000, -88.472
1500.4200,-210.000
1500.4400,-210.000
1500.4600, -83.401
1500.4800, -83.444
1500.5000, -83.388
1500.5200,-210.000
1500.5400, -95.806
1500.5600, -90.880
1500.5800, -88.405
1500.6000, -82.763
1500.6200,-210.000
1500.6400, -82.744
1500.6600, -85.669
1500.6800, -85.011
1500.7000,-210.000
1500.7200, -83.609
1500.7400, -83.683
1500.7600, -85.066
1500.7800, -86.061
1500.8000,-210.000
1500.8200, -84.998
1500.8400, -84.109
1500.8600, -94.102
1500.8800, -83.827
1500.9000,-210.000
1500.9200, -86.139
1500.9400,-210.000
1500.9600, -86.764
1500.9800, -89.886
1501.0000,-210.000
1501.0200, -91.605
1501.0400, -83.863
1501.0600, -84.338
1501.0800,-210.000
1501.1000,-210.000
1501.1200, -82.798
1501.1400, -88.380
1501.1600, -87.078
1501.1800, -97.800
1501.2000, -83.698
1501.2200,-210.000
1501.2400, -86.360
1501.2600, -89.988
1501.2800, -83.693
1501.3000, -84.796
1501.3200,-210.000
1501.3400, -82.529
1501.3600, -84.752
1501.3800, -87.023
1501.4000,-210.000
1501.4200,-210.000
1501.4400, -86.515
1501.4600, -86.176
1501.4800, -98.213
1501.5000, -83.985
1501.5200, -93.169
1501.5400,-210.000
1501.5600, -83.901
1501.5800, -85.692
1501.6000,-210.000
1501.6200, -86.852
1501.6400, -87.587
1501.6600,-210.000
1501.6800, -87.931
1501.7000,-210.000
1501.7200, -84.342
1501.7400, -86.523
1501.7600, -95.842
1501.7800, -91.628
1501.8000, -83.930
1501.8200,-210.000
1501.8400,-210.000
1501.8600, -81.146
1501.8800, -87.886
1501.9000,-210.000
1501.9200, -82.015
1501.9400,-210.000
1501.9600, -83.548
1501.9800, -85.824
1502.0000, -89.124
1502.0200, -89.845
1502.0400,-210.000
1502.0600,-210.000
1502.0800, -82.053
1502.1000,-210.000
1502.1200, -85.519
1502.1400, -84.407
1502.1600,-210.000
1502.1800, -86.079
1502.2000, -87.529
1502.2200, -85.662
1502.2400,-210.000
1502.2600, -81.713
1502.2800, -83.701
1502.3000, -83.109
1502.3200, -94.516
1502.3400, -94.245
1502.3600, -84.153
1502.3800, -88.228
1502.4000,-210.000
1502.4200,-210.000
1502.4400, -92.356
1502.4600, -85.931
1502.4800, -85.295
1502.5000, -86.955
1502.5200, -85.868
1502.5400,-210.000
1502.5600, -87.422
1502.5800, -84.762
1502.6000,-210.000
1502.6200, -91.451
1502.6400,-210.000
1502.6600, -85.531
1502.6800,-102.150
1502.7000, -83.765
1502.7200, -85.257
1502.7400,-210.000
1502.7600, -84.704
1502.7800, -84.978
1502.8000, -86.693
1502.8200,-210.000
1502.8400, -90.471
1502.8600, -85.592
1502.8800,-210.000
1502.9000,-210.000
1502.9200, -90.823
1502.9400, -83.474
1502.9600, -89.880
1502.9800,-210.000
1503.0000,-210.000
1503.0200, -82.303
1503.0400,-210.000
1503.0600, -93.012
1503.0800, -82.934
1503.1000, -92.019
1503.1200,-210.000
1503.1400, -85.389
1503.1600,-210.000
1503.1800, -84.253
1503.2000, -81.933
1503.2200,-210.000
1503.2400, -85.055
1503.2600,-210.000
1503.2800, -83.074
1503.3000, -92.741
1503.3200, -92.033
1503.3400, -88.582
1503.3600,-210.000
1503.3800, -89.965
1503.4000, -86.412
1503.4200,-210.000
1503.4400, -81.869
1503.4600, -85.985
1503.4800,-210.000
1503.5000, -82.833
1503.5200, -85.829
1503.5400,-210.000
1503.5600,-210.000
1503.5800,-210.000
1503.6000, -85.441
1503.6200, -91.349
1503.6400, -79.473
1503.6600,-210.000
1503.6800,-210.000
1503.7000, -90.454
1503.7200, -90.076
1503.7400, -86.759
1503.7600,-210.000
1503.7800, -86.516
1503.8000, -83.573
1503.8200, -91.756
1503.8400, -84.297
1503.8600,-210.000
1503.8800, -89.707
1503.9000, -85.527
1503.9200, -85.539
1503.9400, -82.448
1503.9600,-210.000
1503.9800, -83.974
1504.0000,-100.113
1504.0200, -89.312
1504.0400, -86.807
1504.0600, -82.419
1504.0800,-210.000
1504.1000,-210.000
1504.1200, -88.719
1504.1400, -85.356
1504.1600, -80.198
1504.1800,-210.000
1504.2000,-210.000
1504.2200, -86.364
1504.2400,-210.000
1504.2600,-210.000
1504.2800, -82.140
1504.3000, -82.490
1504.3200, -82.860
1504.3400,-210.000
1504.3600, -85.543
1504.3800, -93.790
1504.4000,-210.000
1504.4200, -85.081
1504.4400, -84.885
1504.4600, -89.048
1504.4800,-210.000
1504.5000, -86.801
1504.5200, -92.083
1504.5400,-210.000
1504.5600, -85.538
1504.5800, -85.133
1504.6000, -88.312
1504.6200, -84.054
1504.6400,-210.000
1504.6600, -91.067
1504.6800, -83.565
1504.7000, -87.810
1504.7200,-210.000
1504.7400, -84.142
1504.7600, -90.604
1504.7800, -82.657
1504.8000, -82.181
1504.8200, -86.054
1504.8400, -88.138
1504.8600,-210.000
1504.8800, -95.973
1504.9000, -81.339
1504.9200,-210.000
1504.9400, -83.969
1504.9600,-210.000
1504.9800, -89.617
1505.0000, -81.471
1505.0200,-210.000
1505.0400, -85.527
1505.0600, -86.281
1505.0800,-210.000
1505.1000, -83.956
1505.1200,-210.000
1505.1400, -91.579
1505.1600, -82.225
1505.1800, -87.007
1505.2000,-210.000
1505.2200, -85.591
1505.2400, -92.447
1505.2600, -83.439
1505.2800, -87.869
1505.3000,-210.000
1505.3200,-100.120
1505.3400, -96.976
1505.3600, -85.486
1505.3800, -86.741
1505.4000, -92.516
1505.4200,-210.000
1505.4400, -86.057
1505.4600, -92.878
1505.4800,-210.000
1505.5000, -89.916
1505.5200, -86.456
1505.5400, -86.551
1505.5600, -91.311
1505.5800, -87.438
1505.6000, -84.893
1505.6200, -84.555
1505.6400, -95.848
1505.6600, -87.326
1505.6800, -86.917
1505.7000,-210.000
1505.7200, -85.924
1505.7400,-210.000
1505.7600, -88.622
1505.7800, -92.959
1505.8000, -88.195
1505.8200, -89.594
1505.8400, -83.763
1505.8600,-210.000
1505.8800, -94.858
1505.9000,-210.000
1505.9200, -86.004
1505.9400, -87.222
1505.9600,-210.000
1505.9800,-210.000
1506.0000, -84.480
1506.0200, -86.303
1506.0400, -90.403
1506.0600,-105.979
1506.0800,-210.000
1506.1000,-210.000
1506.1200,-210.000
1506.1400, -86.064
1506.1600, -87.932
1506.1800,-210.000
1506.2000, -89.462
1506.2200, -87.791
1506.2400, -84.929
1506.2600, -87.313
1506.2800, -83.015
1506.3000, -89.071
1506.3200,-210.000
1506.3400, -85.394
1506.3600, -84.236
1506.3800, -94.253
1506.4000, -83.229
1506.4200, -87.254
1506.4400, -96.053
1506.4600,-210.000
1506.4800, -82.685
1506.5000, -90.133
1506.5200, -89.461
1506.5400, -84.669
1506.5600, -94.082
1506.5800, -86.841
1506.6000, -89.732
1506.6200,-210.000
1506.6400, -89.810
1506.6600, -83.701
1506.6800, -87.802
1506.7000, -86.073
1506.7200, -89.606
1506.7400,-210.000
1506.7600,-210.000
1506.7800, -85.455
1506.8000, -87.677
1506.8200, -83.512
1506.8400, -85.232
1506.8600, -89.229
1506.8800, -85.562
1506.9000, -91.269
1506.9200, -83.471
1506.9400, -90.779
1506.9600, -82.035
1506.9800,-210.000
1507.0000, -93.561
1507.0200, -81.675
1507.0400,-210.000
1507.0600,-210.000
1507.0800, -86.279
1507.1000,-210.000
1507.1200, -83.120
1507.1400, -85.695
1507.1600, -93.723
1507.1800,-210.000
1507.2000, -82.456
1507.2200, -86.728
1507.2400,-210.000
1507.2600, -85.900
1507.2800, -86.440
1507.3000, -87.208
1507.3200,-210.000
1507.3400, -94.410
1507.3600, -89.026
1507.3800, -83.896
1507.4000, -82.688
1507.4200, -87.653
1507.4400, -95.325
1507.4600,-103.470
1507.4800, -83.935
1507.5000, -95.922
1507.5200, -83.971
1507.5400, -90.181
1507.5600, -89.587
1507.5800,-210.000
1507.6000, -81.543
1507.6200, -96.904
1507.6400, -85.193
1507.6600,-210.000
1507.6800,-210.000
1507.7000, -86.715
1507.7200, -84.498
1507.7400,-210.000
1507.7600, -83.345
1507.7800, -85.092
1507.8000, -84.622
1507.8200, -82.674
1507.8400, -88.614
1507.8600, -84.505
1507.8800,-210.000
1507.9000, -85.043
1507.9200,-210.000
1507.9400, -85.196
1507.9600,-210.000
1507.9800,-210.000
1508.0000, -83.276
1508.0200, -90.393
1508.0400, -86.815
1508.0600,-210.000
1508.0800, -86.314
1508.1000, -95.593
1508.1200, -95.940
1508.1400,-210.000
1508.1600, -88.808
1508.1800,-210.000
1508.2000,-210.000
1508.2200, -86.025
1508.2400, -83.766
1508.2600, -85.221
1508.2800, -85.927
1508.3000, -91.088
1508.3200,-210.000
1508.3400,-210.000
1508.3600, -93.961
1508.3800, -88.859
1508.4000, -95.454
1508.4200, -81.508
1508.4400, -91.346
1508.4600, -91.793
1508.4800,-210.000
1508.5000, -84.815
1508.5200, -85.334
1508.5400, -85.893
1508.5600,-210.000
1508.5800, -84.644
1508.6000,-210.000
1508.6200, -86.565
1508.6400, -91.702
1508.6600, -89.741
1508.6800, -86.458
1508.7000,-115.552
1508.7200, -87.479
1508.7400, -81.395
1508.7600, -87.326
1508.7800, -90.404
1508.8000, -84.049
1508.8200, -90.798
1508.8400,-210.000
1508.8600, -83.492
1508.8800,-210.000
1508.9000, -90.328
1508.9200,-210.000
1508.9400, -84.857
1508.9600, -91.426
1508.9800, -82.729
1509.0000,-210.000
1509.0200, -86.700
1509.0400, -87.943
1509.0600,-210.000
1509.0800, -81.622
1509.1000,-210.000
1509.1200, -82.906
1509.1400, -86.580
1509.1600, -96.136
1509.1800, -85.318
1509.2000, -86.379
1509.2200, -84.136
1509.2400, -90.419
1509.2600,-210.000
1509.2800, -93.458
1509.3000, -84.587
1509.3200, -83.238
1509.3400,-210.000
1509.3600, -82.437
1509.3800,-210.000
1509.4000, -89.616
1509.4200, -84.652
1509.4400,-210.000
1509.4600, -83.455
1509.4800, -85.647
1509.5000, -91.747
1509.5200, -84.841
1509.5400, -83.733
1509.5600, -86.996
1509.5800, -85.641
1509.6000, -89.689
1509.6200, -99.950
1509.6400,-210.000
1509.6600, -86.473
1509.6800,-113.990
1509.7000,-210.000
1509.7200, -88.993
1509.7400,-210.000
1509.7600, -89.421
1509.7800, -86.771
1509.8000,-210.000
1509.8200, -83.588
1509.8400, -86.277
1509.8600, -88.347
1509.8800, -87.415
1509.9000,-210.000
1509.9200, -87.754
1509.9400, -91.102
1509.9600,-210.000
1509.9800,-102.045
1510.0000, -84.664
1510.0200,-210.000
1510.0400, -82.462
1510.0600,-210.000
1510.0800, -90.820
1510.1000, -85.363
1510.1200,-210.000
1510.1400, -85.006
1510.1600, -87.746
1510.1800,-210.000
1510.2000, -88.807
1510.2200, -94.802
1510.2400,-210.000
1510.2600, -86.232
1510.2800, -86.273
1510.3000, -86.107
1510.3200, -84.190
1510.3400,-210.000
1510.3600, -97.205
1510.3800, -91.745
1510.4000, -81.512
1510.4200, -89.872
1510.4400, -92.151
1510.4600,-210.000
1510.4800,-210.000
1510.5000, -82.861
1510.5200, -81.794
1510.5400, -87.182
1510.5600, -93.425
1510.5800, -84.658
1510.6000,-210.000
1510.6200, -83.451
1510.6400, -90.801
1510.6600, -96.446
1510.6800, -93.159
1510.7000, -83.153
1510.7200,-210.000
1510.7400, -92.177
1510.7600, -87.890
1510.7800,-210.000
1510.8000, -87.472
1510.8200,-210.000
1510.8400, -85.592
1510.8600,-210.000
1510.8800, -82.582
1510.9000,-210.000
1510.9200, -82.043
1510.9400, -90.412
1510.9600,-210.000
1510.9800, -87.458
1511.0000, -86.852
1511.0200, -91.175
1511.0400, -83.005
1511.0600, -85.761
1511.0800, -87.325
1511.1000, -87.950
1511.1200, -85.894
1511.1400, -88.861
1511.1600,-210.000
1511.1800, -84.177
1511.2000, -86.986
1511.2200,-210.000
1511.2400, -84.019
1511.2600,-210.000
1511.2800, -87.787
1511.3000, -83.605
1511.3200, -82.221
1511.3400, -85.345
1511.3600,-210.000
1511.3800, -95.722
1511.4000, -83.648
1511.4200,-210.000
1511.4400, -88.118
1511.4600,-210.000
1511.4800, -98.891
1511.5000, -81.335
1511.5200, -92.435
1511.5400, -84.738
1511.5600,-100.661
1511.5800, -92.088
1511.6000, -90.771
1511.6200, -97.690
1511.6400,-210.000
1511.6600,-210.000
1511.6800, -84.700
1511.7000, -86.045
1511.7200, -85.973
1511.7400, -90.383
1511.7600, -87.117
1511.7800, -88.510
1511.8000, -85.538
1511.8200,-210.000
1511.8400, -85.688
1511.8600, -85.439
1511.8800, -83.938
1511.9000,-210.000
1511.9200, -82.181
1511.9400, -91.975
1511.9600, -86.757
1511.9800, -82.857
1512.0000, -91.154
1512.0200, -97.375
1512.0400,-210.000
1512.0600, -85.431
1512.0800,-210.000
1512.1000, -91.054
1512.1200, -92.762
1512.1400, -84.705
1512.1600, -85.750
1512.1800, -91.916
1512.2000,-102.257
1512.2200, -87.893
1512.2400, -88.230
1512.2600, -84.492
1512.2800, -96.896
1512.3000,-210.000
1512.3200, -91.014
1512.3400, -91.766
1512.3600, -85.350
1512.3800, -86.651
1512.4000, -92.056
1512.4200, -84.711
1512.4400, -85.354
1512.4600, -87.912
1512.4800,-210.000
1512.5000,-210.000
1512.5200, -83.946
1512.5400,-210.000
1512.5600, -81.169
1512.5800, -84.379
1512.6000, -96.554
1512.6200, -85.252
1512.6400, -90.790
1512.6600,-210.000
1512.6800, -82.160
1512.7000, -92.363
1512.7200, -84.626
1512.7400,-210.000
1512.7600, -83.692
1512.7800,-210.000
1512.8000, -81.420
1512.8200, -82.401
1512.8400,-210.000
1512.8600, -89.346
1512.8800, -97.073
1512.9000, -87.745
1512.9200, -89.622
1512.9400, -86.855
1512.9600,-210.000
1512.9800, -82.601
1513.0000,-210.000
1513.0200, -86.488
1513.0400, -83.301
1513.0600, -89.945
1513.0800, -85.796
1513.1000, -85.481
1513.1200, -87.614
1513.1400, -84.187
1513.1600, -93.234
1513.1800, -87.649
1513.2000, -87.982
1513.2200,-210.000
1513.2400,-210.000
1513.2600,-210.000
1513.2800, -93.093
1513.3000, -88.674
1513.3200, -92.429
1513.3400, -85.368
1513.3600,-210.000
1513.3800, -84.632
1513.4000, -85.988
1513.4200, -84.700
1513.4400, -83.580
1513.4600,-210.000
1513.4800,-210.000
1513.5000, -80.237
1513.5200,-210.000
1513.5400, -81.781
1513.5600,-210.000
1513.5800, -85.741
1513.6000, -85.200
1513.6200, -88.475
1513.6400, -95.593
1513.6600, -93.836
1513.6800,-210.000
1513.7000, -82.612
1513.7200,-101.932
1513.7400, -87.811
1513.7600, -87.024
1513.7800, -84.352
1513.8000, -85.691
1513.8200, -87.290
1513.8400, -99.028
1513.8600, -82.537
1513.8800,-210.000
1513.9000, -85.218
1513.9200,-210.000
1513.9400, -82.566
1513.9600, -82.953
1513.9800,-210.000
1514.0000, -88.684
1514.0200, -85.861
1514.0400,-210.000
1514.0600, -90.661
1514.0800, -90.378
1514.1000, -84.301
1514.1200, -84.536
1514.1400, -91.001
1514.1600, -85.834
1514.1800, -87.901
1514.2000, -84.646
1514.2200, -83.600
1514.2400, -85.779
1514.2600,-210.000
1514.2800, -96.597
1514.3000, -86.709
1514.3200, -89.653
1514.3400,-210.000
1514.3600, -84.640
1514.3800,-210.000
1514.4000, -80.593
1514.4200, -94.492
1514.4400, -89.123
1514.4600, -86.684
1514.4800,-210.000
1514.5000, -81.815
1514.5200, -86.683
1514.5400, -84.554
1514.5600, -85.233
1514.5800,-210.000
1514.6000, -86.634
1514.6200, -84.655
1514.6400, -84.980
1514.6600, -91.309
1514.6800, -95.525
1514.7000,-210.000
1514.7200, -84.630
1514.7400, -86.556
1514.7600,-104.067
1514.7800, -86.706
1514.8000, -85.588
1514.8200, -85.253
1514.8400, -95.291
1514.8600, -85.901
1514.8800,-210.000
1514.9000,-210.000
1514.9200, -84.106
1514.9400,-210.000
1514.9600, -87.912
1514.9800,-210.000
1515.0000, -82.693
1515.0200, -85.296
1515.0400, -83.496
1515.0600, -87.958
1515.0800, -84.615
1515.1000, -85.636
1515.1200,-210.000
1515.1400, -87.925
1515.1600, -89.012
1515.1800, -86.522
1515.2000,-210.000
1515.2200, -99.345
1515.2400, -84.954
1515.2600, -84.168
1515.2800, -86.858
1515.3000, -84.347
1515.3200,-210.000
1515.3400, -92.066
1515.3600, -83.733
1515.3800, -92.099
1515.4000,-210.000
1515.4200, -82.440
1515.4400,-210.000
1515.4600, -85.826
1515.4800, -86.530
1515.5000, -85.373
1515.5200,-210.000
1515.5400,-210.000
1515.5600, -82.318
1515.5800, -82.276
1515.6000, -94.752
1515.6200,-210.000
1515.6400, -81.345
1515.6600,-210.000
1515.6800, -88.534
1515.7000,-210.000
1515.7200, -86.336
1515.7400, -87.953
1515.7600, -88.953
1515.7800, -87.598
1515.8000, -82.092
1515.8200, -83.654
1515.8400,-210.000
1515.8600, -88.159
1515.8800, -84.824
1515.9000, -86.276
1515.9200, -84.609
1515.9400,-210.000
1515.9600, -88.413
1515.9800,-210.000
1516.0000, -84.104
1516.0200, -96.518
1516.0400, -84.108
1516.0600,-210.000
1516.0800, -83.488
1516.1000, -90.053
1516.1200,-104.279
1516.1400,-210.000
1516.1600, -92.922
1516.1800,-210.000
1516.2000, -83.283
1516.2200,-210.000
1516.2400, -88.762
1516.2600, -87.017
1516.2800, -83.210
1516.3000, -82.639
1516.3200,-210.000
1516.3400, -86.755
1516.3600, -86.686
1516.3800, -94.208
1516.4000, -86.587
1516.4200, -92.847
1516.4400,-210.000
1516.4600, -89.169
1516.4800, -87.114
1516.5000,-210.000
1516.5200,-210.000
1516.5400, -82.029
1516.5600,-210.000
1516.5800,-210.000
1516.6000, -82.772
1516.6200,-210.000
1516.6400,-210.000
1516.6600, -88.929
1516.6800, -96.777
1516.7000, -82.735
1516.7200,-210.000
1516.7400, -90.650
1516.7600, -84.505
1516.7800,-210.000
1516.8000, -85.486
1516.8200,-210.000
1516.8400, -81.619
1516.8600,-210.000
1516.8800,-210.000
1516.9000, -82.371
1516.9200, -85.346
1516.9400, -85.700
1516.9600, -84.039
1516.9800, -86.142
1517.0000,-210.000
1517.0200,-210.000
1517.0400,-210.000
1517.0600, -82.807
1517.0800, -86.372
1517.1000, -86.380
1517.1200,-210.000
1517.1400, -85.162
1517.1600, -83.273
1517.1800, -84.568
1517.2000, -86.557
1517.2200,-210.000
1517.2400, -83.872
1517.2600, -90.881
1517.2800, -81.947
1517.3000, -83.835
1517.3200,-210.000
1517.3400,-210.000
1517.3600, -82.717
1517.3800, -86.251
1517.4000,-210.000
1517.4200, -83.246
1517.4400,-210.000
1517.4600,-210.000
1517.4800, -92.417
1517.5000, -85.667
1517.5200, -92.702
1517.5400,-210.000
1517.5600, -84.740
1517.5800, -86.357
1517.6000, -90.900
1517.6200, -86.464
1517.6400, -84.034
1517.6600,-210.000
1517.6800, -86.975
1517.7000,-210.000
1517.7200, -90.820
1517.7400,-210.000
1517.7600, -84.611
1517.7800, -85.131
1517.8000,-210.000
1517.8200, -83.510
1517.8400, -85.558
1517.8600, -91.874
1517.8800, -88.434
1517.9000, -90.092
1517.9200, -88.800
1517.9400, -91.410
1517.9600, -94.841
1517.9800, -86.318
1518.0000, -84.965
1518.0200,-210.000
1518.0400,-210.000
1518.0600, -85.585
1518.0800,-210.000
1518.1000, -81.120
1518.1200,-210.000
1518.1400, -92.412
1518.1600, -89.735
1518.1800,-210.000
1518.2000, -82.153
1518.2200, -83.848
1518.2400, -85.602
1518.2600, -89.318
1518.2800, -84.885
1518.3000,-210.000
1518.3200, -83.412
1518.3400,-210.000
1518.3600,-210.000
1518.3800, -87.412
1518.4000, -81.280
1518.4200,-210.000
1518.4400,-210.000
1518.4600, -84.056
1518.4800, -84.528
1518.5000, -95.263
1518.5200,-210.000
1518.5400,-210.000
1518.5600, -81.997
1518.5800,-210.000
1518.6000, -81.236
1518.6200,-210.000
1518.6400, -84.128
1518.6600, -83.937
1518.6800, -91.051
1518.7000, -84.832
1518.7200, -85.692
1518.7400, -85.127
1518.7600,-210.000
1518.7800, -87.805
1518.8000,-210.000
1518.8200, -84.382
1518.8400,-210.000
1518.8600, -83.325
1518.8800,-210.000
1518.9000, -86.897
1518.9200, -86.301
1518.9400, -81.828
1518.9600, -93.572
1518.9800, -89.787
1519.0000, -89.634
1519.0200,-210.000
1519.0400, -82.431
1519.0600, -90.869
1519.0800, -83.820
1519.1000, -89.500
1519.1200,-210.000
1519.1400,-210.000
1519.1600, -89.642
1519.1800, -93.398
1519.2000, -85.681
1519.2200, -91.353
1519.2400, -88.643
1519.2600,-210.000
1519.2800, -90.420
1519.3000,-210.000
1519.3200,-210.000
1519.3400, -82.636
1519.3600,-210.000
1519.3800, -86.361
1519.4000, -88.520
1519.4200, -94.809
1519.4400, -91.239
1519.4600, -89.475
1519.4800,-210.000
1519.5000, -92.089
1519.5200, -85.816
1519.5400, -85.114
1519.5600, -85.820
1519.5800, -90.310
1519.6000, -89.193
1519.6200, -90.133
1519.6400, -84.884
1519.6600, -85.109
1519.6800,-210.000
1519.7000, -85.665
1519.7200, -86.429
1519.7400, -84.170
1519.7600, -87.381
1519.7800, -84.501
1519.8000,-210.000
1519.8200, -85.216
1519.8400,-210.000
1519.8600,-103.629
1519.8800, -86.166
1519.9000, -85.230
1519.9200,-210.000
1519.9400, -92.895
1519.9600, -84.192
1519.9800, -84.652
1520.0000, -85.739
1520.0200, -83.452
1520.0400, -87.634
1520.0600,-210.000
1520.0800,-210.000
1520.1000, -87.810
1520.1200, -94.077
1520.1400, -82.977
1520.1600, -92.402
1520.1800, -83.418
1520.2000, -86.208
1520.2200, -84.878
1520.2400,-100.478
1520.2600, -84.956
1520.2800, -92.514
1520.3000,-210.000
1520.3200, -84.070
1520.3400,-210.000
1520.3600, -85.508
1520.3800, -83.184
1520.4000,-210.000
1520.4200, -90.358
1520.4400, -87.061
1520.4600, -81.831
1520.4800,-210.000
1520.5000,-210.000
1520.5200,-210.000
1520.5400, -84.883
1520.5600, -83.590
1520.5800,-210.000
1520.6000, -84.320
1520.6200, -82.703
