70BCSV 	
// AQ6370B OPTICAL SPECTRUM ANALYZER //                 
25
"CTRWL",1550.000000
"SPAN", 100.000000
"START WL",1500.000000
"STOP WL",1600.000000
"WLFREQ", 0
"REFL",-62.8
"LSCL", 5.0
"RESLN",0.100
"AVG",   1
"SMPLAUTO",      0
"SMPL",       5001
"SMPLINTVL",0.0200
"HIGH1"
"MEAS"
"LSUNT",0
"NMSKH","OFF"
"RESCOR",0
"RESPARM", 9050
"FREQPARM", 9050






"[TRACE DATA]"
1500.0000, -82.332
1500.0200,-210.000
1500.0400,-210.000
1500.0600, -86.615
1500.0800, -92.040
1500.1000,-210.000
1500.1200, -85.511
1500.1400, -82.394
1500.1600, -86.813
1500.1800, -86.341
1500.2000, -82.181
1500.2200, -84.713
1500.2400,-210.000
1500.2600,-210.000
1500.2800, -91.676
1500.3000, -82.650
1500.3200, -93.718
1500.3400, -84.239
1500.3600, -82.522
1500.3800,-210.000
1500.4000, -98.349
1500.4200,-210.000
1500.4400, -84.226
1500.4600, -90.372
1500.4800, -89.094
1500.5000,-210.000
1500.5200, -88.615
1500.5400, -83.957
1500.5600, -83.492
1500.5800, -81.877
1500.6000,-210.000
1500.6200,-210.000
1500.6400, -89.897
1500.6600,-210.000
1500.6800,-210.000
1500.7000, -81.160
1500.7200,-106.874
1500.7400,-210.000
1500.7600,-107.628
1500.7800, -81.218
1500.8000, -83.254
1500.8200,-210.000
1500.8400,-210.000
1500.8600, -86.393
1500.8800, -84.273
1500.9000, -82.246
1500.9200, -92.504
1500.9400,-210.000
1500.9600, -85.055
1500.9800, -87.551
1501.0000, -81.298
1501.0200, -84.781
1501.0400, -88.696
1501.0600,-210.000
1501.0800,-210.000
1501.1000, -81.075
1501.1200,-210.000
1501.1400,-210.000
1501.1600, -94.282
1501.1800, -84.644
1501.2000, -91.046
1501.2200, -86.962
1501.2400, -85.653
1501.2600, -86.683
1501.2800, -83.950
1501.3000, -95.473
1501.3200, -83.716
1501.3400,-210.000
1501.3600,-113.714
1501.3800, -85.830
1501.4000, -95.747
1501.4200, -87.329
1501.4400, -81.885
1501.4600, -95.005
1501.4800, -89.799
1501.5000, -87.946
1501.5200,-210.000
1501.5400,-210.000
1501.5600,-210.000
1501.5800,-210.000
1501.6000, -82.898
1501.6200,-210.000
1501.6400,-107.295
1501.6600, -93.723
1501.6800, -84.921
1501.7000,-210.000
1501.7200, -83.268
1501.7400,-101.552
1501.7600,-210.000
1501.7800, -83.175
1501.8000, -90.078
1501.8200, -90.550
1501.8400, -83.927
1501.8600,-210.000
1501.8800, -87.121
1501.9000, -87.444
1501.9200, -92.470
1501.9400, -85.565
1501.9600, -81.195
1501.9800, -86.957
1502.0000, -90.534
1502.0200, -90.818
1502.0400, -86.272
1502.0600, -83.596
1502.0800, -87.166
1502.1000, -85.873
1502.1200, -84.157
1502.1400, -82.878
1502.1600, -86.277
1502.1800, -85.199
1502.2000, -84.754
1502.2200,-210.000
1502.2400,-210.000
1502.2600, -86.712
1502.2800,-210.000
1502.3000, -87.662
1502.3200, -85.553
1502.3400, -84.553
1502.3600, -90.564
1502.3800, -91.324
1502.4000,-210.000
1502.4200, -88.462
1502.4400, -87.905
1502.4600,-210.000
1502.4800, -87.761
1502.5000, -87.459
1502.5200, -85.422
1502.5400,-210.000
1502.5600, -90.037
1502.5800, -82.130
1502.6000, -88.623
1502.6200, -88.298
1502.6400,-210.000
1502.6600, -86.096
1502.6800,-210.000
1502.7000, -85.840
1502.7200,-210.000
1502.7400, -87.077
1502.7600,-210.000
1502.7800, -84.543
1502.8000,-210.000
1502.8200, -87.708
1502.8400, -83.679
1502.8600, -88.288
1502.8800, -89.683
1502.9000, -86.284
1502.9200, -86.633
1502.9400, -86.796
1502.9600, -85.237
1502.9800, -89.879
1503.0000, -85.710
1503.0200, -86.934
1503.0400, -87.211
1503.0600,-210.000
1503.0800, -83.055
1503.1000,-210.000
1503.1200, -86.303
1503.1400,-210.000
1503.1600, -97.611
1503.1800, -90.129
1503.2000, -85.026
1503.2200, -82.359
1503.2400, -92.401
1503.2600, -85.664
1503.2800,-210.000
1503.3000, -83.617
1503.3200,-210.000
1503.3400, -84.987
1503.3600, -87.098
1503.3800, -84.053
1503.4000,-210.000
1503.4200, -81.963
1503.4400,-210.000
1503.4600, -88.510
1503.4800, -88.695
1503.5000, -84.708
1503.5200, -90.223
1503.5400, -84.418
1503.5600,-210.000
1503.5800, -84.489
1503.6000,-210.000
1503.6200, -95.688
1503.6400, -86.281
1503.6600, -84.423
1503.6800,-210.000
1503.7000, -90.711
1503.7200, -85.710
1503.7400,-210.000
1503.7600, -84.012
1503.7800,-210.000
1503.8000, -86.045
1503.8200,-210.000
1503.8400, -85.990
1503.8600, -84.565
1503.8800,-115.569
1503.9000, -84.924
1503.9200,-210.000
1503.9400,-210.000
1503.9600, -87.184
1503.9800,-210.000
1504.0000, -86.930
1504.0200, -90.067
1504.0400, -89.513
1504.0600, -90.924
1504.0800, -96.641
1504.1000, -85.363
1504.1200,-210.000
1504.1400, -84.523
1504.1600, -84.704
1504.1800,-210.000
1504.2000, -86.366
1504.2200,-107.473
1504.2400,-210.000
1504.2600, -83.791
1504.2800, -86.394
1504.3000, -86.084
1504.3200,-210.000
1504.3400, -84.759
1504.3600, -85.972
1504.3800,-210.000
1504.4000, -83.445
1504.4200, -87.985
1504.4400,-210.000
1504.4600, -92.284
1504.4800, -86.460
1504.5000, -97.814
1504.5200, -92.096
1504.5400, -88.634
1504.5600, -89.584
1504.5800, -83.604
1504.6000, -90.858
1504.6200,-210.000
1504.6400, -87.108
1504.6600, -84.496
1504.6800, -84.164
1504.7000, -90.129
1504.7200, -82.269
1504.7400, -88.468
1504.7600,-210.000
1504.7800, -83.353
1504.8000, -95.839
1504.8200, -83.847
1504.8400, -87.812
1504.8600,-210.000
1504.8800,-210.000
1504.9000, -99.872
1504.9200,-210.000
1504.9400, -86.920
1504.9600, -86.482
1504.9800, -84.966
1505.0000, -84.765
1505.0200, -83.783
1505.0400, -86.869
1505.0600,-210.000
1505.0800, -83.094
1505.1000,-210.000
1505.1200, -89.178
1505.1400, -92.389
1505.1600, -87.964
1505.1800, -92.312
1505.2000, -83.058
1505.2200, -83.863
1505.2400,-210.000
1505.2600, -83.861
1505.2800,-210.000
1505.3000,-210.000
1505.3200, -89.023
1505.3400, -99.484
1505.3600, -88.703
1505.3800, -85.868
1505.4000, -93.072
1505.4200,-210.000
1505.4400, -91.368
1505.4600,-210.000
1505.4800, -85.606
1505.5000, -81.911
1505.5200,-210.000
1505.5400, -80.679
1505.5600, -93.819
1505.5800, -83.287
1505.6000,-210.000
1505.6200, -84.327
1505.6400, -85.825
1505.6600,-210.000
1505.6800, -83.907
1505.7000, -82.872
1505.7200, -86.198
1505.7400, -87.546
1505.7600,-210.000
1505.7800, -82.197
1505.8000,-210.000
1505.8200, -89.494
1505.8400, -83.262
1505.8600,-210.000
1505.8800, -84.813
1505.9000, -89.032
1505.9200,-210.000
1505.9400, -86.860
1505.9600, -90.718
1505.9800, -88.043
1506.0000, -97.795
1506.0200, -84.482
1506.0400,-210.000
1506.0600, -82.647
1506.0800, -95.639
1506.1000, -83.175
1506.1200, -86.997
1506.1400,-210.000
1506.1600,-210.000
1506.1800, -87.074
1506.2000, -83.757
1506.2200, -84.654
1506.2400, -91.399
1506.2600, -88.202
1506.2800,-210.000
1506.3000,-210.000
1506.3200, -81.170
1506.3400, -89.725
1506.3600,-210.000
1506.3800, -90.644
1506.4000,-210.000
1506.4200, -94.498
1506.4400, -82.274
1506.4600,-210.000
1506.4800, -87.089
1506.5000, -99.327
1506.5200, -83.336
1506.5400, -83.538
1506.5600, -91.435
1506.5800,-210.000
1506.6000, -85.405
1506.6200, -83.439
1506.6400, -88.726
1506.6600, -97.610
1506.6800, -85.482
1506.7000, -85.522
1506.7200, -87.237
1506.7400,-210.000
1506.7600,-210.000
1506.7800, -88.536
1506.8000,-210.000
1506.8200, -85.602
1506.8400,-210.000
1506.8600, -88.120
1506.8800,-210.000
1506.9000, -85.221
1506.9200, -88.529
1506.9400,-210.000
1506.9600,-210.000
1506.9800, -83.270
1507.0000, -84.984
1507.0200,-210.000
1507.0400, -84.401
1507.0600, -83.412
1507.0800,-210.000
1507.1000, -88.287
1507.1200,-210.000
1507.1400, -85.473
1507.1600, -88.985
1507.1800, -82.746
1507.2000, -86.198
1507.2200,-210.000
1507.2400,-210.000
1507.2600, -81.081
1507.2800,-210.000
1507.3000,-210.000
1507.3200, -83.605
1507.3400, -82.075
1507.3600,-210.000
1507.3800, -84.611
1507.4000,-210.000
1507.4200, -83.438
1507.4400,-210.000
1507.4600, -90.125
1507.4800, -82.561
1507.5000, -86.860
1507.5200, -91.516
1507.5400,-210.000
1507.5600, -87.072
1507.5800, -87.286
1507.6000, -82.503
1507.6200, -92.079
1507.6400, -86.710
1507.6600, -85.407
1507.6800, -88.405
1507.7000,-210.000
1507.7200, -83.616
1507.7400,-210.000
1507.7600, -83.356
1507.7800, -86.701
1507.8000,-210.000
1507.8200, -84.194
1507.8400,-210.000
1507.8600, -83.000
1507.8800,-210.000
1507.9000,-210.000
1507.9200, -87.115
1507.9400, -94.768
1507.9600, -84.479
1507.9800, -84.251
1508.0000, -93.549
1508.0200,-210.000
1508.0400,-210.000
1508.0600, -84.632
1508.0800, -88.931
1508.1000,-210.000
1508.1200, -86.939
1508.1400, -83.101
1508.1600,-210.000
1508.1800, -87.909
1508.2000, -84.631
1508.2200,-210.000
1508.2400, -84.581
1508.2600, -86.616
1508.2800,-104.815
1508.3000, -88.757
1508.3200, -86.603
1508.3400, -84.911
1508.3600,-210.000
1508.3800, -89.161
1508.4000, -95.490
1508.4200, -85.433
1508.4400, -85.715
1508.4600, -87.161
1508.4800, -89.345
1508.5000, -88.537
1508.5200,-210.000
1508.5400, -92.699
1508.5600, -84.102
1508.5800, -86.472
1508.6000,-210.000
1508.6200, -84.127
1508.6400, -88.582
1508.6600, -93.100
1508.6800,-210.000
1508.7000, -83.025
1508.7200, -87.074
1508.7400,-210.000
1508.7600, -85.491
1508.7800, -90.257
1508.8000, -89.285
1508.8200, -85.377
1508.8400,-210.000
1508.8600, -82.733
1508.8800, -84.204
1508.9000,-210.000
1508.9200, -83.068
1508.9400, -93.783
1508.9600, -88.999
1508.9800, -92.755
1509.0000, -87.753
1509.0200, -88.025
1509.0400, -97.613
1509.0600, -96.325
1509.0800, -90.510
1509.1000, -83.666
1509.1200, -88.931
1509.1400, -83.710
1509.1600, -84.086
1509.1800, -88.080
1509.2000, -94.158
1509.2200, -90.120
1509.2400, -85.513
1509.2600, -85.131
1509.2800, -90.424
1509.3000, -89.479
1509.3200, -94.087
1509.3400,-210.000
1509.3600,-210.000
1509.3800, -82.096
1509.4000,-210.000
1509.4200, -85.272
1509.4400, -85.837
1509.4600,-210.000
1509.4800,-210.000
1509.5000, -84.941
1509.5200, -85.511
1509.5400, -83.911
1509.5600, -87.776
1509.5800, -86.890
1509.6000, -93.402
1509.6200,-210.000
1509.6400, -88.481
1509.6600, -95.706
1509.6800, -92.352
1509.7000, -83.592
1509.7200, -93.250
1509.7400, -85.309
1509.7600,-210.000
1509.7800, -83.622
1509.8000, -84.219
1509.8200, -91.631
1509.8400, -87.284
1509.8600, -87.160
1509.8800,-210.000
1509.9000, -88.846
1509.9200, -82.695
1509.9400, -90.371
1509.9600,-210.000
1509.9800,-210.000
1510.0000, -92.510
1510.0200, -87.018
1510.0400, -82.320
1510.0600,-210.000
1510.0800,-210.000
1510.1000, -86.797
1510.1200, -84.094
1510.1400, -98.589
1510.1600,-210.000
1510.1800, -82.741
1510.2000, -84.432
1510.2200,-210.000
1510.2400,-210.000
1510.2600, -86.856
1510.2800, -90.259
1510.3000, -86.239
1510.3200,-210.000
1510.3400, -82.908
1510.3600, -84.088
1510.3800, -88.139
1510.4000, -87.837
1510.4200, -84.875
1510.4400,-106.303
1510.4600,-210.000
1510.4800, -83.414
1510.5000, -94.466
1510.5200, -89.722
1510.5400, -84.641
1510.5600, -88.416
1510.5800,-210.000
1510.6000,-210.000
1510.6200, -83.525
1510.6400,-210.000
1510.6600, -85.244
1510.6800, -84.248
1510.7000,-210.000
1510.7200, -83.325
1510.7400, -89.776
1510.7600, -87.269
1510.7800, -90.589
1510.8000,-210.000
1510.8200, -82.652
1510.8400,-210.000
1510.8600,-210.000
1510.8800,-102.263
1510.9000, -88.068
1510.9200,-210.000
1510.9400, -86.491
1510.9600, -85.266
1510.9800, -99.868
1511.0000,-210.000
1511.0200, -88.660
1511.0400, -85.830
1511.0600, -86.724
1511.0800, -87.845
1511.1000, -87.995
1511.1200, -92.246
1511.1400,-210.000
1511.1600, -83.038
1511.1800, -82.619
1511.2000, -85.422
1511.2200, -85.637
1511.2400,-210.000
1511.2600, -84.984
1511.2800, -84.693
1511.3000, -87.518
1511.3200, -86.070
1511.3400,-210.000
1511.3600, -88.848
1511.3800,-210.000
1511.4000, -83.116
1511.4200, -85.794
1511.4400, -93.391
1511.4600,-210.000
1511.4800, -86.185
1511.5000, -84.849
1511.5200,-210.000
1511.5400, -81.464
1511.5600,-210.000
1511.5800, -90.172
1511.6000, -87.384
1511.6200, -86.246
1511.6400, -95.217
1511.6600,-210.000
1511.6800,-210.000
1511.7000,-210.000
1511.7200, -85.789
1511.7400,-210.000
1511.7600, -80.550
1511.7800, -82.664
1511.8000, -85.581
1511.8200, -91.522
1511.8400, -87.444
1511.8600, -90.679
1511.8800,-210.000
1511.9000, -84.337
1511.9200, -83.895
1511.9400,-210.000
1511.9600,-210.000
1511.9800, -86.167
1512.0000,-210.000
1512.0200, -87.674
1512.0400,-210.000
1512.0600, -93.202
1512.0800, -80.461
1512.1000, -83.853
1512.1200, -91.614
1512.1400, -85.537
1512.1600,-210.000
1512.1800, -82.329
1512.2000, -93.830
1512.2200, -85.481
1512.2400,-210.000
1512.2600, -87.419
1512.2800, -82.838
1512.3000,-210.000
1512.3200, -84.415
1512.3400,-210.000
1512.3600, -98.211
1512.3800,-210.000
1512.4000, -82.242
1512.4200, -85.181
1512.4400,-210.000
1512.4600, -82.779
1512.4800, -96.963
1512.5000, -85.478
1512.5200,-210.000
1512.5400, -81.328
1512.5600,-210.000
1512.5800, -83.354
1512.6000,-109.746
1512.6200, -97.675
1512.6400, -86.820
1512.6600, -89.385
1512.6800,-210.000
1512.7000, -86.601
1512.7200, -86.260
1512.7400, -87.308
1512.7600, -84.993
1512.7800,-210.000
1512.8000, -82.735
1512.8200, -81.824
1512.8400, -83.639
1512.8600,-210.000
1512.8800,-210.000
1512.9000, -85.721
1512.9200,-210.000
1512.9400, -85.753
1512.9600, -90.430
1512.9800,-210.000
1513.0000, -88.306
1513.0200, -89.492
1513.0400, -84.071
1513.0600,-210.000
1513.0800, -85.569
1513.1000, -82.021
1513.1200,-210.000
1513.1400, -85.039
1513.1600, -82.822
1513.1800,-210.000
1513.2000, -84.932
1513.2200,-210.000
1513.2400,-103.764
1513.2600,-210.000
1513.2800, -88.408
1513.3000, -83.463
1513.3200, -81.253
1513.3400,-210.000
1513.3600, -84.678
1513.3800, -89.898
1513.4000,-210.000
1513.4200, -81.634
1513.4400,-210.000
1513.4600,-210.000
1513.4800, -85.596
1513.5000,-210.000
1513.5200,-210.000
1513.5400, -82.449
1513.5600,-210.000
1513.5800, -83.589
1513.6000,-210.000
1513.6200, -85.378
1513.6400,-210.000
1513.6600, -82.137
1513.6800,-210.000
1513.7000,-210.000
1513.7200, -87.559
1513.7400, -87.834
1513.7600, -84.383
1513.7800, -86.376
1513.8000, -82.591
1513.8200,-210.000
1513.8400, -94.873
1513.8600, -87.394
1513.8800, -86.336
1513.9000,-210.000
1513.9200, -85.485
1513.9400,-210.000
1513.9600, -86.288
1513.9800,-210.000
1514.0000, -86.084
1514.0200,-210.000
1514.0400, -82.605
1514.0600, -83.417
1514.0800, -85.885
1514.1000,-210.000
1514.1200, -84.776
1514.1400, -85.724
1514.1600,-210.000
1514.1800, -86.027
1514.2000,-101.679
1514.2200, -89.758
1514.2400, -81.503
1514.2600,-210.000
1514.2800, -85.898
1514.3000, -86.975
1514.3200, -93.313
1514.3400,-210.000
1514.3600, -86.239
1514.3800, -88.726
1514.4000,-210.000
1514.4200, -86.338
1514.4400, -85.747
1514.4600, -93.957
1514.4800,-210.000
1514.5000,-101.906
1514.5200, -84.107
1514.5400, -91.952
1514.5600,-210.000
1514.5800, -80.482
1514.6000,-210.000
1514.6200, -85.802
1514.6400, -95.374
1514.6600, -82.612
1514.6800, -88.185
1514.7000, -86.667
1514.7200,-210.000
1514.7400, -84.523
1514.7600, -90.229
1514.7800, -84.275
1514.8000, -88.215
1514.8200, -86.202
1514.8400,-210.000
1514.8600, -86.625
1514.8800, -89.134
1514.9000, -83.172
1514.9200,-210.000
1514.9400, -83.613
1514.9600,-210.000
1514.9800,-210.000
1515.0000, -84.740
1515.0200,-210.000
1515.0400, -87.480
1515.0600, -89.040
1515.0800, -87.867
1515.1000,-210.000
1515.1200, -82.897
1515.1400, -97.895
1515.1600, -82.889
1515.1800,-210.000
1515.2000, -85.502
1515.2200,-210.000
1515.2400, -84.416
1515.2600, -96.789
1515.2800, -89.974
1515.3000,-210.000
1515.3200, -83.565
1515.3400, -86.211
1515.3600, -88.746
1515.3800, -87.181
1515.4000, -85.904
1515.4200,-210.000
1515.4400,-210.000
1515.4600, -86.197
1515.4800, -86.250
1515.5000, -82.604
1515.5200,-210.000
1515.5400, -86.516
1515.5600, -97.370
1515.5800,-210.000
1515.6000, -85.916
1515.6200, -91.451
1515.6400, -92.834
1515.6600, -94.703
1515.6800, -87.341
1515.7000, -88.879
1515.7200,-210.000
1515.7400,-210.000
1515.7600, -86.933
1515.7800,-210.000
1515.8000,-210.000
1515.8200, -82.395
1515.8400,-210.000
1515.8600,-210.000
1515.8800, -82.150
1515.9000, -83.020
1515.9200,-210.000
1515.9400, -83.813
1515.9600,-210.000
1515.9800, -88.169
1516.0000,-210.000
1516.0200, -85.721
1516.0400,-210.000
1516.0600, -84.018
1516.0800, -84.408
1516.1000, -85.293
1516.1200, -89.955
1516.1400, -84.273
1516.1600, -85.355
1516.1800,-210.000
1516.2000,-210.000
1516.2200, -82.660
1516.2400, -92.160
1516.2600,-210.000
1516.2800, -84.182
1516.3000, -82.428
1516.3200,-210.000
1516.3400, -86.996
1516.3600, -86.132
1516.3800,-210.000
1516.4000, -82.832
1516.4200, -95.288
1516.4400, -85.876
1516.4600,-210.000
1516.4800, -86.634
1516.5000, -83.171
1516.5200, -97.045
1516.5400, -90.674
1516.5600, -87.311
1516.5800,-210.000
1516.6000,-210.000
1516.6200, -85.220
1516.6400,-210.000
1516.6600, -84.844
1516.6800, -85.347
1516.7000,-210.000
1516.7200, -82.897
1516.7400, -88.536
1516.7600,-210.000
1516.7800, -90.965
1516.8000, -85.152
1516.8200, -87.576
1516.8400,-210.000
1516.8600, -83.558
1516.8800,-210.000
1516.9000, -89.400
1516.9200,-210.000
1516.9400, -83.283
1516.9600,-210.000
1516.9800, -81.381
1517.0000,-210.000
1517.0200,-210.000
1517.0400, -81.226
1517.0600,-210.000
1517.0800,-210.000
1517.1000,-210.000
1517.1200,-210.000
1517.1400, -83.379
1517.1600, -92.895
1517.1800, -85.448
1517.2000, -85.435
1517.2200,-210.000
1517.2400, -85.919
1517.2600,-210.000
1517.2800, -86.014
1517.3000,-210.000
1517.3200, -89.678
1517.3400, -86.467
1517.3600, -83.764
1517.3800, -84.691
1517.4000, -84.349
1517.4200, -89.065
1517.4400, -94.220
1517.4600, -88.151
1517.4800,-210.000
1517.5000, -86.588
1517.5200, -87.356
1517.5400,-210.000
1517.5600, -93.918
1517.5800, -86.096
1517.6000,-210.000
1517.6200, -87.021
1517.6400,-210.000
1517.6600, -83.552
1517.6800,-210.000
1517.7000, -83.145
1517.7200,-210.000
1517.7400, -85.242
1517.7600,-210.000
1517.7800, -84.781
1517.8000,-103.770
1517.8200, -88.078
1517.8400, -86.627
1517.8600, -84.293
1517.8800, -87.350
1517.9000,-210.000
1517.9200, -85.834
1517.9400, -90.136
1517.9600, -87.965
1517.9800, -84.610
1518.0000,-210.000
1518.0200, -87.878
1518.0400, -81.804
1518.0600, -87.231
1518.0800, -91.137
1518.1000, -83.790
1518.1200, -95.299
1518.1400, -83.924
1518.1600, -90.269
1518.1800,-210.000
1518.2000,-210.000
1518.2200, -85.812
1518.2400, -83.906
1518.2600, -82.126
1518.2800,-210.000
1518.3000, -86.673
1518.3200,-210.000
1518.3400, -87.182
1518.3600,-210.000
1518.3800, -84.671
1518.4000, -93.760
1518.4200,-210.000
1518.4400, -87.277
1518.4600,-210.000
1518.4800, -88.780
1518.5000, -85.488
1518.5200, -89.328
1518.5400, -87.923
1518.5600, -85.780
1518.5800, -94.397
1518.6000, -88.769
1518.6200,-210.000
1518.6400, -93.155
1518.6600, -85.688
1518.6800, -85.213
1518.7000,-210.000
1518.7200, -85.541
1518.7400, -89.742
1518.7600, -84.768
1518.7800, -85.779
1518.8000, -83.954
1518.8200, -88.672
1518.8400,-210.000
1518.8600,-210.000
1518.8800, -81.812
1518.9000, -85.090
1518.9200,-210.000
1518.9400, -79.333
1518.9600, -92.282
1518.9800, -90.618
1519.0000, -89.873
1519.0200, -81.866
1519.0400,-210.000
1519.0600, -88.987
1519.0800, -96.322
1519.1000, -85.574
1519.1200,-210.000
1519.1400, -90.881
1519.1600,-210.000
1519.1800, -83.962
1519.2000,-210.000
1519.2200, -83.740
1519.2400,-210.000
1519.2600,-210.000
1519.2800, -85.979
1519.3000, -84.579
1519.3200, -82.930
1519.3400, -85.497
1519.3600, -83.584
1519.3800, -90.015
1519.4000,-210.000
1519.4200,-210.000
1519.4400, -82.649
1519.4600, -86.507
1519.4800,-210.000
1519.5000, -88.468
1519.5200, -84.992
1519.5400,-210.000
1519.5600, -81.807
1519.5800,-210.000
1519.6000,-210.000
1519.6200, -81.361
1519.6400,-210.000
1519.6600, -84.089
1519.6800, -84.417
1519.7000,-210.000
1519.7200,-210.000
1519.7400, -90.488
1519.7600,-210.000
1519.7800, -87.413
1519.8000,-210.000
1519.8200, -81.447
1519.8400, -83.539
1519.8600, -86.560
1519.8800, -92.384
1519.9000,-210.000
1519.9200, -90.588
1519.9400, -99.102
1519.9600,-210.000
1519.9800, -97.780
1520.0000,-210.000
1520.0200, -81.211
1520.0400,-210.000
1520.0600, -89.483
1520.0800, -84.598
1520.1000, -87.251
1520.1200, -91.606
1520.1400, -86.639
1520.1600,-210.000
1520.1800, -84.743
1520.2000, -97.062
1520.2200, -86.219
1520.2400, -83.813
1520.2600,-210.000
1520.2800, -82.131
1520.3000, -85.606
1520.3200,-210.000
1520.3400, -83.143
1520.3600, -83.531
1520.3800, -94.063
1520.4000, -86.815
1520.4200, -84.900
1520.4400,-210.000
1520.4600,-210.000
1520.4800, -80.775
1520.5000, -86.204
1520.5200, -91.929
1520.5400, -90.114
1520.5600,-210.000
1520.5800, -86.997
1520.6000,-210.000
1520.6200,-210.000
