70BCSV 	
// AQ6370B OPTICAL SPECTRUM ANALYZER //                 
25
"CTRWL",1550.000000
"SPAN", 100.000000
"START WL",1500.000000
"STOP WL",1600.000000
"WLFREQ", 0
"REFL",-28.8
"LSCL", 5.0
"RESLN",0.100
"AVG",   1
"SMPLAUTO",      0
"SMPL",       5001
"SMPLINTVL",0.0200
"HIGH1"
"MEAS"
"LSUNT",0
"NMSKH","OFF"
"RESCOR",0
"RESPARM", 9050
"FREQPARM", 9050






"[TRACE DATA]"
1500.0000, -62.401
1500.0200, -62.410
1500.0400, -62.400
1500.0600, -62.326
1500.0800, -62.437
1500.1000, -62.331
1500.1200, -62.397
1500.1400, -62.394
1500.1600, -62.333
1500.1800, -62.367
1500.2000, -62.356
1500.2200, -62.365
1500.2400, -62.319
1500.2600, -62.350
1500.2800, -62.322
1500.3000, -62.363
1500.3200, -62.369
1500.3400, -62.253
1500.3600, -62.376
1500.3800, -62.288
1500.4000, -62.306
1500.4200, -62.292
1500.4400, -62.261
1500.4600, -62.296
1500.4800, -62.263
1500.5000, -62.319
1500.5200, -62.252
1500.5400, -62.272
1500.5600, -62.285
1500.5800, -62.193
1500.6000, -62.232
1500.6200, -62.260
1500.6400, -62.218
1500.6600, -62.264
1500.6800, -62.171
1500.7000, -62.217
1500.7200, -62.198
1500.7400, -62.202
1500.7600, -62.159
1500.7800, -62.170
1500.8000, -62.193
1500.8200, -62.220
1500.8400, -62.168
1500.8600, -62.147
1500.8800, -62.180
1500.9000, -62.103
1500.9200, -62.153
1500.9400, -62.144
1500.9600, -62.178
1500.9800, -62.147
1501.0000, -62.152
1501.0200, -62.124
1501.0400, -62.090
1501.0600, -62.144
1501.0800, -62.129
1501.1000, -62.087
1501.1200, -62.100
1501.1400, -62.144
1501.1600, -62.120
1501.1800, -62.078
1501.2000, -62.052
1501.2200, -62.131
1501.2400, -62.055
1501.2600, -62.047
1501.2800, -62.071
1501.3000, -62.030
1501.3200, -62.050
1501.3400, -62.043
1501.3600, -62.031
1501.3800, -62.006
1501.4000, -62.041
1501.4200, -62.062
1501.4400, -61.992
1501.4600, -62.025
1501.4800, -62.024
1501.5000, -61.984
1501.5200, -61.991
1501.5400, -61.998
1501.5600, -61.950
1501.5800, -61.986
1501.6000, -61.958
1501.6200, -61.948
1501.6400, -61.955
1501.6600, -61.940
1501.6800, -61.964
1501.7000, -61.937
1501.7200, -61.938
1501.7400, -61.924
1501.7600, -61.916
1501.7800, -61.916
1501.8000, -61.932
1501.8200, -61.897
1501.8400, -61.975
1501.8600, -61.899
1501.8800, -61.901
1501.9000, -61.907
1501.9200, -61.882
1501.9400, -61.843
1501.9600, -61.859
1501.9800, -61.888
1502.0000, -61.860
1502.0200, -61.836
1502.0400, -61.861
1502.0600, -61.846
1502.0800, -61.834
1502.1000, -61.845
1502.1200, -61.822
1502.1400, -61.835
1502.1600, -61.815
1502.1800, -61.790
1502.2000, -61.796
1502.2200, -61.792
1502.2400, -61.760
1502.2600, -61.760
1502.2800, -61.760
1502.3000, -61.743
1502.3200, -61.787
1502.3400, -61.719
1502.3600, -61.730
1502.3800, -61.799
1502.4000, -61.723
1502.4200, -61.706
1502.4400, -61.682
1502.4600, -61.765
1502.4800, -61.680
1502.5000, -61.688
1502.5200, -61.723
1502.5400, -61.641
1502.5600, -61.637
1502.5800, -61.669
1502.6000, -61.666
1502.6200, -61.649
1502.6400, -61.667
1502.6600, -61.661
1502.6800, -61.655
1502.7000, -61.592
1502.7200, -61.606
1502.7400, -61.651
1502.7600, -61.638
1502.7800, -61.605
1502.8000, -61.623
1502.8200, -61.580
1502.8400, -61.557
1502.8600, -61.590
1502.8800, -61.596
1502.9000, -61.575
1502.9200, -61.568
1502.9400, -61.526
1502.9600, -61.534
1502.9800, -61.534
1503.0000, -61.558
1503.0200, -61.552
1503.0400, -61.545
1503.0600, -61.544
1503.0800, -61.543
1503.1000, -61.499
1503.1200, -61.506
1503.1400, -61.538
1503.1600, -61.476
1503.1800, -61.500
1503.2000, -61.474
1503.2200, -61.500
1503.2400, -61.453
1503.2600, -61.495
1503.2800, -61.434
1503.3000, -61.401
1503.3200, -61.465
1503.3400, -61.436
1503.3600, -61.473
1503.3800, -61.417
1503.4000, -61.423
1503.4200, -61.399
1503.4400, -61.345
1503.4600, -61.413
1503.4800, -61.377
1503.5000, -61.363
1503.5200, -61.364
1503.5400, -61.365
1503.5600, -61.360
1503.5800, -61.325
1503.6000, -61.348
1503.6200, -61.346
1503.6400, -61.343
1503.6600, -61.333
1503.6800, -61.322
1503.7000, -61.301
1503.7200, -61.270
1503.7400, -61.337
1503.7600, -61.290
1503.7800, -61.235
1503.8000, -61.276
1503.8200, -61.285
1503.8400, -61.252
1503.8600, -61.308
1503.8800, -61.269
1503.9000, -61.244
1503.9200, -61.221
1503.9400, -61.243
1503.9600, -61.238
1503.9800, -61.234
1504.0000, -61.221
1504.0200, -61.276
1504.0400, -61.220
1504.0600, -61.239
1504.0800, -61.202
1504.1000, -61.160
1504.1200, -61.210
1504.1400, -61.197
1504.1600, -61.099
1504.1800, -61.166
1504.2000, -61.147
1504.2200, -61.170
1504.2400, -61.118
1504.2600, -61.131
1504.2800, -61.116
1504.3000, -61.108
1504.3200, -61.102
1504.3400, -61.108
1504.3600, -61.110
1504.3800, -61.084
1504.4000, -61.085
1504.4200, -61.076
1504.4400, -61.039
1504.4600, -61.045
1504.4800, -61.015
1504.5000, -61.054
1504.5200, -61.046
1504.5400, -61.012
1504.5600, -60.995
1504.5800, -61.001
1504.6000, -61.037
1504.6200, -60.981
1504.6400, -60.964
1504.6600, -60.975
1504.6800, -60.958
1504.7000, -60.976
1504.7200, -60.975
1504.7400, -60.921
1504.7600, -60.955
1504.7800, -60.966
1504.8000, -60.926
1504.8200, -60.923
1504.8400, -60.953
1504.8600, -60.916
1504.8800, -60.896
1504.9000, -60.893
1504.9200, -60.896
1504.9400, -60.900
1504.9600, -60.853
1504.9800, -60.920
1505.0000, -60.843
1505.0200, -60.847
1505.0400, -60.863
1505.0600, -60.856
1505.0800, -60.821
1505.1000, -60.830
1505.1200, -60.823
1505.1400, -60.798
1505.1600, -60.806
1505.1800, -60.815
1505.2000, -60.768
1505.2200, -60.799
1505.2400, -60.765
1505.2600, -60.768
1505.2800, -60.757
1505.3000, -60.765
1505.3200, -60.725
1505.3400, -60.728
1505.3600, -60.713
1505.3800, -60.697
1505.4000, -60.707
1505.4200, -60.699
1505.4400, -60.680
1505.4600, -60.683
1505.4800, -60.664
1505.5000, -60.669
1505.5200, -60.651
1505.5400, -60.646
1505.5600, -60.650
1505.5800, -60.620
1505.6000, -60.662
1505.6200, -60.645
1505.6400, -60.610
1505.6600, -60.609
1505.6800, -60.600
1505.7000, -60.586
1505.7200, -60.593
1505.7400, -60.575
1505.7600, -60.591
1505.7800, -60.574
1505.8000, -60.555
1505.8200, -60.558
1505.8400, -60.570
1505.8600, -60.517
1505.8800, -60.568
1505.9000, -60.509
1505.9200, -60.539
1505.9400, -60.539
1505.9600, -60.510
1505.9800, -60.489
1506.0000, -60.517
1506.0200, -60.477
1506.0400, -60.475
1506.0600, -60.492
1506.0800, -60.445
1506.1000, -60.446
1506.1200, -60.441
1506.1400, -60.444
1506.1600, -60.428
1506.1800, -60.416
1506.2000, -60.413
1506.2200, -60.401
1506.2400, -60.399
1506.2600, -60.396
1506.2800, -60.395
1506.3000, -60.384
1506.3200, -60.355
1506.3400, -60.357
1506.3600, -60.347
1506.3800, -60.341
1506.4000, -60.300
1506.4200, -60.312
1506.4400, -60.338
1506.4600, -60.297
1506.4800, -60.302
1506.5000, -60.307
1506.5200, -60.279
1506.5400, -60.275
1506.5600, -60.282
1506.5800, -60.249
1506.6000, -60.275
1506.6200, -60.216
1506.6400, -60.257
1506.6600, -60.221
1506.6800, -60.222
1506.7000, -60.241
1506.7200, -60.203
1506.7400, -60.206
1506.7600, -60.198
1506.7800, -60.190
1506.8000, -60.224
1506.8200, -60.149
1506.8400, -60.181
1506.8600, -60.154
1506.8800, -60.158
1506.9000, -60.182
1506.9200, -60.145
1506.9400, -60.137
1506.9600, -60.113
1506.9800, -60.143
1507.0000, -60.100
1507.0200, -60.095
1507.0400, -60.087
1507.0600, -60.110
1507.0800, -60.037
1507.1000, -60.082
1507.1200, -60.079
1507.1400, -60.074
1507.1600, -60.042
1507.1800, -60.022
1507.2000, -60.038
1507.2200, -60.042
1507.2400, -60.026
1507.2600, -60.020
1507.2800, -59.987
1507.3000, -59.995
1507.3200, -59.993
1507.3400, -59.969
1507.3600, -59.969
1507.3800, -59.959
1507.4000, -59.936
1507.4200, -59.960
1507.4400, -59.931
1507.4600, -59.922
1507.4800, -59.916
1507.5000, -59.911
1507.5200, -59.907
1507.5400, -59.905
1507.5600, -59.871
1507.5800, -59.860
1507.6000, -59.851
1507.6200, -59.872
1507.6400, -59.818
1507.6600, -59.865
1507.6800, -59.845
1507.7000, -59.808
1507.7200, -59.817
1507.7400, -59.816
1507.7600, -59.789
1507.7800, -59.786
1507.8000, -59.817
1507.8200, -59.776
1507.8400, -59.777
1507.8600, -59.791
1507.8800, -59.776
1507.9000, -59.764
1507.9200, -59.739
1507.9400, -59.742
1507.9600, -59.743
1507.9800, -59.720
1508.0000, -59.718
1508.0200, -59.714
1508.0400, -59.699
1508.0600, -59.666
1508.0800, -59.679
1508.1000, -59.696
1508.1200, -59.657
1508.1400, -59.656
1508.1600, -59.648
1508.1800, -59.620
1508.2000, -59.646
1508.2200, -59.619
1508.2400, -59.603
1508.2600, -59.607
1508.2800, -59.586
1508.3000, -59.608
1508.3200, -59.579
1508.3400, -59.558
1508.3600, -59.559
1508.3800, -59.560
1508.4000, -59.542
1508.4200, -59.555
1508.4400, -59.515
1508.4600, -59.534
1508.4800, -59.503
1508.5000, -59.530
1508.5200, -59.496
1508.5400, -59.469
1508.5600, -59.504
1508.5800, -59.474
1508.6000, -59.448
1508.6200, -59.463
1508.6400, -59.463
1508.6600, -59.480
1508.6800, -59.428
1508.7000, -59.421
1508.7200, -59.432
1508.7400, -59.415
1508.7600, -59.406
1508.7800, -59.415
1508.8000, -59.433
1508.8200, -59.420
1508.8400, -59.388
1508.8600, -59.398
1508.8800, -59.377
1508.9000, -59.352
1508.9200, -59.347
1508.9400, -59.339
1508.9600, -59.315
1508.9800, -59.317
1509.0000, -59.330
1509.0200, -59.282
1509.0400, -59.288
1509.0600, -59.283
1509.0800, -59.272
1509.1000, -59.265
1509.1200, -59.278
1509.1400, -59.246
1509.1600, -59.243
1509.1800, -59.260
1509.2000, -59.183
1509.2200, -59.207
1509.2400, -59.203
1509.2600, -59.189
1509.2800, -59.176
1509.3000, -59.167
1509.3200, -59.172
1509.3400, -59.166
1509.3600, -59.157
1509.3800, -59.129
1509.4000, -59.126
1509.4200, -59.127
1509.4400, -59.098
1509.4600, -59.096
1509.4800, -59.108
1509.5000, -59.096
1509.5200, -59.063
1509.5400, -59.055
1509.5600, -59.057
1509.5800, -59.061
1509.6000, -59.047
1509.6200, -59.050
1509.6400, -59.002
1509.6600, -59.030
1509.6800, -59.007
1509.7000, -59.022
1509.7200, -59.023
1509.7400, -58.982
1509.7600, -59.023
1509.7800, -59.000
1509.8000, -58.965
1509.8200, -58.961
1509.8400, -58.946
1509.8600, -58.940
1509.8800, -58.925
1509.9000, -58.939
1509.9200, -58.908
1509.9400, -58.907
1509.9600, -58.892
1509.9800, -58.868
1510.0000, -58.889
1510.0200, -58.858
1510.0400, -58.855
1510.0600, -58.847
1510.0800, -58.866
1510.1000, -58.829
1510.1200, -58.817
1510.1400, -58.802
1510.1600, -58.797
1510.1800, -58.790
1510.2000, -58.791
1510.2200, -58.753
1510.2400, -58.757
1510.2600, -58.721
1510.2800, -58.716
1510.3000, -58.726
1510.3200, -58.727
1510.3400, -58.706
1510.3600, -58.687
1510.3800, -58.676
1510.4000, -58.658
1510.4200, -58.661
1510.4400, -58.640
1510.4600, -58.638
1510.4800, -58.618
1510.5000, -58.617
1510.5200, -58.609
1510.5400, -58.602
1510.5600, -58.605
1510.5800, -58.577
1510.6000, -58.566
1510.6200, -58.564
1510.6400, -58.566
1510.6600, -58.550
1510.6800, -58.563
1510.7000, -58.523
1510.7200, -58.516
1510.7400, -58.508
1510.7600, -58.537
1510.7800, -58.470
1510.8000, -58.498
1510.8200, -58.463
1510.8400, -58.447
1510.8600, -58.443
1510.8800, -58.405
1510.9000, -58.434
1510.9200, -58.425
1510.9400, -58.391
1510.9600, -58.373
1510.9800, -58.395
1511.0000, -58.380
1511.0200, -58.361
1511.0400, -58.344
1511.0600, -58.345
1511.0800, -58.342
1511.1000, -58.312
1511.1200, -58.296
1511.1400, -58.283
1511.1600, -58.275
1511.1800, -58.256
1511.2000, -58.261
1511.2200, -58.244
1511.2400, -58.237
1511.2600, -58.221
1511.2800, -58.199
1511.3000, -58.229
1511.3200, -58.190
1511.3400, -58.190
1511.3600, -58.170
1511.3800, -58.154
1511.4000, -58.140
1511.4200, -58.123
1511.4400, -58.130
1511.4600, -58.112
1511.4800, -58.109
1511.5000, -58.091
1511.5200, -58.096
1511.5400, -58.079
1511.5600, -58.050
1511.5800, -58.055
1511.6000, -58.067
1511.6200, -58.027
1511.6400, -58.054
1511.6600, -58.038
1511.6800, -57.999
1511.7000, -57.994
1511.7200, -58.001
1511.7400, -57.985
1511.7600, -57.963
1511.7800, -57.947
1511.8000, -57.944
1511.8200, -57.920
1511.8400, -57.907
1511.8600, -57.892
1511.8800, -57.894
1511.9000, -57.873
1511.9200, -57.863
1511.9400, -57.863
1511.9600, -57.856
1511.9800, -57.839
1512.0000, -57.834
1512.0200, -57.830
1512.0400, -57.805
1512.0600, -57.782
1512.0800, -57.765
1512.1000, -57.764
1512.1200, -57.748
1512.1400, -57.717
1512.1600, -57.747
1512.1800, -57.719
1512.2000, -57.703
1512.2200, -57.699
1512.2400, -57.702
1512.2600, -57.690
1512.2800, -57.671
1512.3000, -57.654
1512.3200, -57.633
1512.3400, -57.641
1512.3600, -57.614
1512.3800, -57.599
1512.4000, -57.608
1512.4200, -57.610
1512.4400, -57.607
1512.4600, -57.572
1512.4800, -57.561
1512.5000, -57.557
1512.5200, -57.540
1512.5400, -57.542
1512.5600, -57.527
1512.5800, -57.512
1512.6000, -57.502
1512.6200, -57.496
1512.6400, -57.483
1512.6600, -57.468
1512.6800, -57.456
1512.7000, -57.448
1512.7200, -57.447
1512.7400, -57.400
1512.7600, -57.407
1512.7800, -57.405
1512.8000, -57.386
1512.8200, -57.358
1512.8400, -57.370
1512.8600, -57.332
1512.8800, -57.354
1512.9000, -57.339
1512.9200, -57.322
1512.9400, -57.325
1512.9600, -57.306
1512.9800, -57.266
1513.0000, -57.270
1513.0200, -57.250
1513.0400, -57.225
1513.0600, -57.244
1513.0800, -57.208
1513.1000, -57.214
1513.1200, -57.184
1513.1400, -57.175
1513.1600, -57.195
1513.1800, -57.170
1513.2000, -57.164
1513.2200, -57.139
1513.2400, -57.118
1513.2600, -57.116
1513.2800, -57.106
1513.3000, -57.096
1513.3200, -57.078
1513.3400, -57.063
1513.3600, -57.073
1513.3800, -57.053
1513.4000, -57.033
1513.4200, -57.025
1513.4400, -57.022
1513.4600, -57.000
1513.4800, -56.987
1513.5000, -56.992
1513.5200, -56.985
1513.5400, -56.968
1513.5600, -56.960
1513.5800, -56.956
1513.6000, -56.939
1513.6200, -56.910
1513.6400, -56.911
1513.6600, -56.897
1513.6800, -56.865
1513.7000, -56.849
1513.7200, -56.838
1513.7400, -56.831
1513.7600, -56.829
1513.7800, -56.808
1513.8000, -56.790
1513.8200, -56.797
1513.8400, -56.772
1513.8600, -56.770
1513.8800, -56.753
1513.9000, -56.746
1513.9200, -56.725
1513.9400, -56.710
1513.9600, -56.683
1513.9800, -56.685
1514.0000, -56.665
1514.0200, -56.647
1514.0400, -56.646
1514.0600, -56.638
1514.0800, -56.613
1514.1000, -56.611
1514.1200, -56.585
1514.1400, -56.577
1514.1600, -56.585
1514.1800, -56.571
1514.2000, -56.542
1514.2200, -56.518
1514.2400, -56.514
1514.2600, -56.503
1514.2800, -56.494
1514.3000, -56.477
1514.3200, -56.476
1514.3400, -56.463
1514.3600, -56.442
1514.3800, -56.432
1514.4000, -56.418
1514.4200, -56.411
1514.4400, -56.407
1514.4600, -56.401
1514.4800, -56.378
1514.5000, -56.392
1514.5200, -56.373
1514.5400, -56.343
1514.5600, -56.333
1514.5800, -56.309
1514.6000, -56.292
1514.6200, -56.304
1514.6400, -56.268
1514.6600, -56.259
1514.6800, -56.253
1514.7000, -56.223
1514.7200, -56.216
1514.7400, -56.202
1514.7600, -56.177
1514.7800, -56.185
1514.8000, -56.161
1514.8200, -56.165
1514.8400, -56.154
1514.8600, -56.134
1514.8800, -56.117
1514.9000, -56.103
1514.9200, -56.082
1514.9400, -56.063
1514.9600, -56.053
1514.9800, -56.027
1515.0000, -56.019
1515.0200, -56.008
1515.0400, -56.004
1515.0600, -56.011
1515.0800, -55.963
1515.1000, -55.973
1515.1200, -55.960
1515.1400, -55.922
1515.1600, -55.922
1515.1800, -55.905
1515.2000, -55.865
1515.2200, -55.889
1515.2400, -55.852
1515.2600, -55.861
1515.2800, -55.834
1515.3000, -55.814
1515.3200, -55.803
1515.3400, -55.804
1515.3600, -55.787
1515.3800, -55.770
1515.4000, -55.769
1515.4200, -55.773
1515.4400, -55.740
1515.4600, -55.729
1515.4800, -55.722
1515.5000, -55.691
1515.5200, -55.678
1515.5400, -55.662
1515.5600, -55.633
1515.5800, -55.635
1515.6000, -55.616
1515.6200, -55.600
1515.6400, -55.583
1515.6600, -55.571
1515.6800, -55.552
1515.7000, -55.539
1515.7200, -55.537
1515.7400, -55.509
1515.7600, -55.515
1515.7800, -55.490
1515.8000, -55.478
1515.8200, -55.458
1515.8400, -55.436
1515.8600, -55.430
1515.8800, -55.408
1515.9000, -55.384
1515.9200, -55.369
1515.9400, -55.350
1515.9600, -55.347
1515.9800, -55.331
1516.0000, -55.318
1516.0200, -55.311
1516.0400, -55.280
1516.0600, -55.283
1516.0800, -55.253
1516.1000, -55.240
1516.1200, -55.220
1516.1400, -55.200
1516.1600, -55.179
1516.1800, -55.176
1516.2000, -55.167
1516.2200, -55.155
1516.2400, -55.139
1516.2600, -55.118
1516.2800, -55.112
1516.3000, -55.094
1516.3200, -55.087
1516.3400, -55.086
1516.3600, -55.048
1516.3800, -55.040
1516.4000, -55.038
1516.4200, -55.018
1516.4400, -55.000
1516.4600, -54.974
1516.4800, -54.969
1516.5000, -54.943
1516.5200, -54.893
1516.5400, -54.897
1516.5600, -54.883
1516.5800, -54.870
1516.6000, -54.845
1516.6200, -54.834
1516.6400, -54.813
1516.6600, -54.795
1516.6800, -54.781
1516.7000, -54.777
1516.7200, -54.763
1516.7400, -54.748
1516.7600, -54.698
1516.7800, -54.685
1516.8000, -54.677
1516.8200, -54.671
1516.8400, -54.644
1516.8600, -54.631
1516.8800, -54.602
1516.9000, -54.594
1516.9200, -54.574
1516.9400, -54.565
1516.9600, -54.544
1516.9800, -54.528
1517.0000, -54.514
1517.0200, -54.501
1517.0400, -54.471
1517.0600, -54.442
1517.0800, -54.436
1517.1000, -54.424
1517.1200, -54.385
1517.1400, -54.386
1517.1600, -54.383
1517.1800, -54.356
1517.2000, -54.335
1517.2200, -54.307
1517.2400, -54.302
1517.2600, -54.288
1517.2800, -54.277
1517.3000, -54.260
1517.3200, -54.258
1517.3400, -54.238
1517.3600, -54.206
1517.3800, -54.200
1517.4000, -54.176
1517.4200, -54.166
1517.4400, -54.138
1517.4600, -54.101
1517.4800, -54.073
1517.5000, -54.067
1517.5200, -54.051
1517.5400, -54.043
1517.5600, -54.016
1517.5800, -53.991
1517.6000, -53.982
1517.6200, -53.959
1517.6400, -53.946
1517.6600, -53.930
1517.6800, -53.906
1517.7000, -53.886
1517.7200, -53.844
1517.7400, -53.833
1517.7600, -53.825
1517.7800, -53.796
1517.8000, -53.762
1517.8200, -53.756
1517.8400, -53.736
1517.8600, -53.722
1517.8800, -53.704
1517.9000, -53.684
1517.9200, -53.655
1517.9400, -53.642
1517.9600, -53.634
1517.9800, -53.594
1518.0000, -53.567
1518.0200, -53.556
1518.0400, -53.543
1518.0600, -53.507
1518.0800, -53.506
1518.1000, -53.489
1518.1200, -53.467
1518.1400, -53.440
1518.1600, -53.427
1518.1800, -53.404
1518.2000, -53.385
1518.2200, -53.373
1518.2400, -53.365
1518.2600, -53.347
1518.2800, -53.318
1518.3000, -53.314
1518.3200, -53.275
1518.3400, -53.267
1518.3600, -53.227
1518.3800, -53.218
1518.4000, -53.173
1518.4200, -53.158
1518.4400, -53.138
1518.4600, -53.112
1518.4800, -53.081
1518.5000, -53.072
1518.5200, -53.043
1518.5400, -53.024
1518.5600, -53.009
1518.5800, -52.986
1518.6000, -52.973
1518.6200, -52.934
1518.6400, -52.913
1518.6600, -52.880
1518.6800, -52.865
1518.7000, -52.839
1518.7200, -52.818
1518.7400, -52.797
1518.7600, -52.768
1518.7800, -52.753
1518.8000, -52.727
1518.8200, -52.719
1518.8400, -52.678
1518.8600, -52.644
1518.8800, -52.641
1518.9000, -52.623
1518.9200, -52.595
1518.9400, -52.566
1518.9600, -52.547
1518.9800, -52.521
1519.0000, -52.505
1519.0200, -52.475
1519.0400, -52.462
1519.0600, -52.448
1519.0800, -52.414
1519.1000, -52.384
1519.1200, -52.373
1519.1400, -52.349
1519.1600, -52.331
1519.1800, -52.301
1519.2000, -52.279
1519.2200, -52.262
1519.2400, -52.239
1519.2600, -52.199
1519.2800, -52.186
1519.3000, -52.156
1519.3200, -52.135
1519.3400, -52.107
1519.3600, -52.072
1519.3800, -52.043
1519.4000, -52.023
1519.4200, -51.984
1519.4400, -51.971
1519.4600, -51.945
1519.4800, -51.912
1519.5000, -51.896
1519.5200, -51.868
1519.5400, -51.841
1519.5600, -51.814
1519.5800, -51.793
1519.6000, -51.753
1519.6200, -51.734
1519.6400, -51.703
1519.6600, -51.676
1519.6800, -51.648
1519.7000, -51.616
1519.7200, -51.598
1519.7400, -51.570
1519.7600, -51.541
1519.7800, -51.508
1519.8000, -51.478
1519.8200, -51.459
1519.8400, -51.432
1519.8600, -51.411
1519.8800, -51.375
1519.9000, -51.351
1519.9200, -51.313
1519.9400, -51.300
1519.9600, -51.279
1519.9800, -51.251
1520.0000, -51.222
1520.0200, -51.188
1520.0400, -51.156
1520.0600, -51.133
1520.0800, -51.113
1520.1000, -51.092
1520.1200, -51.059
1520.1400, -51.057
1520.1600, -51.015
1520.1800, -50.997
1520.2000, -50.947
1520.2200, -50.924
1520.2400, -50.889
1520.2600, -50.868
1520.2800, -50.822
1520.3000, -50.787
1520.3200, -50.754
1520.3400, -50.717
1520.3600, -50.685
1520.3800, -50.660
1520.4000, -50.627
1520.4200, -50.601
1520.4400, -50.577
1520.4600, -50.556
1520.4800, -50.506
1520.5000, -50.484
1520.5200, -50.452
1520.5400, -50.412
1520.5600, -50.381
1520.5800, -50.338
1520.6000, -50.315
1520.6200, -50.277
