70BCSV 	
// AQ6370B OPTICAL SPECTRUM ANALYZER //                 
25
"CTRWL",1550.000000
"SPAN", 100.000000
"START WL",1500.000000
"STOP WL",1600.000000
"WLFREQ", 0
"REFL",-28.8
"LSCL", 5.0
"RESLN",0.100
"AVG",   1
"SMPLAUTO",      0
"SMPL",       5001
"SMPLINTVL",0.0200
"HIGH1"
"MEAS"
"LSUNT",0
"NMSKH","OFF"
"RESCOR",0
"RESPARM", 9050
"FREQPARM", 9050






"[TRACE DATA]"
1500.0000, -62.804
1500.0200, -62.868
1500.0400, -62.803
1500.0600, -62.841
1500.0800, -62.795
1500.1000, -62.799
1500.1200, -62.811
1500.1400, -62.809
1500.1600, -62.768
1500.1800, -62.802
1500.2000, -62.791
1500.2200, -62.742
1500.2400, -62.783
1500.2600, -62.777
1500.2800, -62.787
1500.3000, -62.757
1500.3200, -62.749
1500.3400, -62.752
1500.3600, -62.774
1500.3800, -62.748
1500.4000, -62.718
1500.4200, -62.722
1500.4400, -62.741
1500.4600, -62.708
1500.4800, -62.684
1500.5000, -62.698
1500.5200, -62.717
1500.5400, -62.675
1500.5600, -62.675
1500.5800, -62.659
1500.6000, -62.677
1500.6200, -62.702
1500.6400, -62.669
1500.6600, -62.643
1500.6800, -62.690
1500.7000, -62.634
1500.7200, -62.676
1500.7400, -62.649
1500.7600, -62.626
1500.7800, -62.623
1500.8000, -62.631
1500.8200, -62.621
1500.8400, -62.582
1500.8600, -62.609
1500.8800, -62.632
1500.9000, -62.569
1500.9200, -62.579
1500.9400, -62.581
1500.9600, -62.586
1500.9800, -62.593
1501.0000, -62.586
1501.0200, -62.561
1501.0400, -62.584
1501.0600, -62.564
1501.0800, -62.545
1501.1000, -62.537
1501.1200, -62.567
1501.1400, -62.558
1501.1600, -62.561
1501.1800, -62.490
1501.2000, -62.574
1501.2200, -62.504
1501.2400, -62.523
1501.2600, -62.509
1501.2800, -62.478
1501.3000, -62.502
1501.3200, -62.505
1501.3400, -62.478
1501.3600, -62.479
1501.3800, -62.475
1501.4000, -62.484
1501.4200, -62.431
1501.4400, -62.454
1501.4600, -62.446
1501.4800, -62.445
1501.5000, -62.457
1501.5200, -62.432
1501.5400, -62.397
1501.5600, -62.411
1501.5800, -62.397
1501.6000, -62.426
1501.6200, -62.414
1501.6400, -62.412
1501.6600, -62.397
1501.6800, -62.370
1501.7000, -62.391
1501.7200, -62.359
1501.7400, -62.342
1501.7600, -62.359
1501.7800, -62.333
1501.8000, -62.355
1501.8200, -62.347
1501.8400, -62.389
1501.8600, -62.368
1501.8800, -62.365
1501.9000, -62.313
1501.9200, -62.358
1501.9400, -62.327
1501.9600, -62.359
1501.9800, -62.297
1502.0000, -62.307
1502.0200, -62.319
1502.0400, -62.292
1502.0600, -62.323
1502.0800, -62.258
1502.1000, -62.278
1502.1200, -62.262
1502.1400, -62.270
1502.1600, -62.288
1502.1800, -62.252
1502.2000, -62.258
1502.2200, -62.235
1502.2400, -62.233
1502.2600, -62.222
1502.2800, -62.215
1502.3000, -62.243
1502.3200, -62.184
1502.3400, -62.193
1502.3600, -62.193
1502.3800, -62.160
1502.4000, -62.153
1502.4200, -62.163
1502.4400, -62.139
1502.4600, -62.188
1502.4800, -62.167
1502.5000, -62.122
1502.5200, -62.153
1502.5400, -62.163
1502.5600, -62.111
1502.5800, -62.117
1502.6000, -62.082
1502.6200, -62.106
1502.6400, -62.107
1502.6600, -62.099
1502.6800, -62.069
1502.7000, -62.048
1502.7200, -62.064
1502.7400, -62.105
1502.7600, -62.073
1502.7800, -62.083
1502.8000, -62.064
1502.8200, -62.055
1502.8400, -62.101
1502.8600, -62.047
1502.8800, -62.009
1502.9000, -62.057
1502.9200, -62.011
1502.9400, -62.018
1502.9600, -62.017
1502.9800, -62.027
1503.0000, -62.023
1503.0200, -61.978
1503.0400, -61.976
1503.0600, -61.988
1503.0800, -61.979
1503.1000, -61.961
1503.1200, -61.955
1503.1400, -61.955
1503.1600, -61.943
1503.1800, -61.955
1503.2000, -61.942
1503.2200, -61.951
1503.2400, -61.927
1503.2600, -61.900
1503.2800, -61.900
1503.3000, -61.879
1503.3200, -61.889
1503.3400, -61.904
1503.3600, -61.874
1503.3800, -61.860
1503.4000, -61.881
1503.4200, -61.861
1503.4400, -61.839
1503.4600, -61.846
1503.4800, -61.823
1503.5000, -61.910
1503.5200, -61.824
1503.5400, -61.806
1503.5600, -61.806
1503.5800, -61.796
1503.6000, -61.828
1503.6200, -61.800
1503.6400, -61.794
1503.6600, -61.786
1503.6800, -61.790
1503.7000, -61.742
1503.7200, -61.772
1503.7400, -61.794
1503.7600, -61.719
1503.7800, -61.738
1503.8000, -61.768
1503.8200, -61.701
1503.8400, -61.756
1503.8600, -61.785
1503.8800, -61.688
1503.9000, -61.747
1503.9200, -61.683
1503.9400, -61.710
1503.9600, -61.684
1503.9800, -61.707
1504.0000, -61.709
1504.0200, -61.672
1504.0400, -61.670
1504.0600, -61.711
1504.0800, -61.638
1504.1000, -61.629
1504.1200, -61.647
1504.1400, -61.608
1504.1600, -61.638
1504.1800, -61.604
1504.2000, -61.621
1504.2200, -61.615
1504.2400, -61.560
1504.2600, -61.613
1504.2800, -61.568
1504.3000, -61.574
1504.3200, -61.565
1504.3400, -61.574
1504.3600, -61.542
1504.3800, -61.573
1504.4000, -61.540
1504.4200, -61.520
1504.4400, -61.520
1504.4600, -61.525
1504.4800, -61.531
1504.5000, -61.488
1504.5200, -61.481
1504.5400, -61.506
1504.5600, -61.482
1504.5800, -61.497
1504.6000, -61.448
1504.6200, -61.435
1504.6400, -61.430
1504.6600, -61.415
1504.6800, -61.434
1504.7000, -61.422
1504.7200, -61.435
1504.7400, -61.447
1504.7600, -61.418
1504.7800, -61.454
1504.8000, -61.407
1504.8200, -61.421
1504.8400, -61.379
1504.8600, -61.413
1504.8800, -61.380
1504.9000, -61.380
1504.9200, -61.373
1504.9400, -61.399
1504.9600, -61.328
1504.9800, -61.355
1505.0000, -61.330
1505.0200, -61.341
1505.0400, -61.345
1505.0600, -61.268
1505.0800, -61.303
1505.1000, -61.279
1505.1200, -61.278
1505.1400, -61.264
1505.1600, -61.285
1505.1800, -61.257
1505.2000, -61.261
1505.2200, -61.259
1505.2400, -61.250
1505.2600, -61.217
1505.2800, -61.194
1505.3000, -61.208
1505.3200, -61.210
1505.3400, -61.176
1505.3600, -61.178
1505.3800, -61.178
1505.4000, -61.186
1505.4200, -61.191
1505.4400, -61.197
1505.4600, -61.129
1505.4800, -61.140
1505.5000, -61.139
1505.5200, -61.169
1505.5400, -61.105
1505.5600, -61.095
1505.5800, -61.153
1505.6000, -61.103
1505.6200, -61.057
1505.6400, -61.080
1505.6600, -61.106
1505.6800, -61.055
1505.7000, -61.063
1505.7200, -61.102
1505.7400, -61.038
1505.7600, -61.079
1505.7800, -61.065
1505.8000, -61.057
1505.8200, -61.041
1505.8400, -61.063
1505.8600, -61.010
1505.8800, -60.981
1505.9000, -61.014
1505.9200, -60.993
1505.9400, -60.993
1505.9600, -60.981
1505.9800, -61.035
1506.0000, -60.951
1506.0200, -60.974
1506.0400, -60.946
1506.0600, -60.944
1506.0800, -60.933
1506.1000, -60.928
1506.1200, -60.948
1506.1400, -60.922
1506.1600, -60.928
1506.1800, -60.915
1506.2000, -60.886
1506.2200, -60.888
1506.2400, -60.855
1506.2600, -60.872
1506.2800, -60.839
1506.3000, -60.844
1506.3200, -60.840
1506.3400, -60.836
1506.3600, -60.822
1506.3800, -60.830
1506.4000, -60.822
1506.4200, -60.786
1506.4400, -60.778
1506.4600, -60.799
1506.4800, -60.796
1506.5000, -60.776
1506.5200, -60.751
1506.5400, -60.767
1506.5600, -60.752
1506.5800, -60.731
1506.6000, -60.766
1506.6200, -60.709
1506.6400, -60.737
1506.6600, -60.726
1506.6800, -60.707
1506.7000, -60.730
1506.7200, -60.693
1506.7400, -60.713
1506.7600, -60.680
1506.7800, -60.676
1506.8000, -60.690
1506.8200, -60.656
1506.8400, -60.680
1506.8600, -60.677
1506.8800, -60.648
1506.9000, -60.637
1506.9200, -60.630
1506.9400, -60.602
1506.9600, -60.620
1506.9800, -60.577
1507.0000, -60.629
1507.0200, -60.585
1507.0400, -60.591
1507.0600, -60.572
1507.0800, -60.572
1507.1000, -60.575
1507.1200, -60.566
1507.1400, -60.539
1507.1600, -60.518
1507.1800, -60.544
1507.2000, -60.513
1507.2200, -60.509
1507.2400, -60.512
1507.2600, -60.508
1507.2800, -60.504
1507.3000, -60.509
1507.3200, -60.448
1507.3400, -60.460
1507.3600, -60.470
1507.3800, -60.452
1507.4000, -60.432
1507.4200, -60.419
1507.4400, -60.420
1507.4600, -60.397
1507.4800, -60.440
1507.5000, -60.399
1507.5200, -60.395
1507.5400, -60.375
1507.5600, -60.393
1507.5800, -60.380
1507.6000, -60.364
1507.6200, -60.381
1507.6400, -60.340
1507.6600, -60.359
1507.6800, -60.334
1507.7000, -60.337
1507.7200, -60.330
1507.7400, -60.323
1507.7600, -60.330
1507.7800, -60.294
1507.8000, -60.293
1507.8200, -60.292
1507.8400, -60.275
1507.8600, -60.264
1507.8800, -60.285
1507.9000, -60.271
1507.9200, -60.252
1507.9400, -60.235
1507.9600, -60.220
1507.9800, -60.228
1508.0000, -60.228
1508.0200, -60.238
1508.0400, -60.203
1508.0600, -60.189
1508.0800, -60.169
1508.1000, -60.172
1508.1200, -60.192
1508.1400, -60.154
1508.1600, -60.127
1508.1800, -60.140
1508.2000, -60.124
1508.2200, -60.125
1508.2400, -60.125
1508.2600, -60.125
1508.2800, -60.110
1508.3000, -60.092
1508.3200, -60.088
1508.3400, -60.080
1508.3600, -60.067
1508.3800, -60.055
1508.4000, -60.065
1508.4200, -60.046
1508.4400, -60.024
1508.4600, -60.036
1508.4800, -60.016
1508.5000, -60.023
1508.5200, -60.009
1508.5400, -60.012
1508.5600, -60.015
1508.5800, -60.017
1508.6000, -59.987
1508.6200, -59.970
1508.6400, -59.995
1508.6600, -59.950
1508.6800, -59.955
1508.7000, -59.940
1508.7200, -59.945
1508.7400, -59.932
1508.7600, -59.936
1508.7800, -59.923
1508.8000, -59.928
1508.8200, -59.905
1508.8400, -59.911
1508.8600, -59.919
1508.8800, -59.887
1508.9000, -59.878
1508.9200, -59.845
1508.9400, -59.871
1508.9600, -59.825
1508.9800, -59.847
1509.0000, -59.828
1509.0200, -59.818
1509.0400, -59.781
1509.0600, -59.812
1509.0800, -59.796
1509.1000, -59.787
1509.1200, -59.783
1509.1400, -59.780
1509.1600, -59.744
1509.1800, -59.761
1509.2000, -59.734
1509.2200, -59.726
1509.2400, -59.709
1509.2600, -59.698
1509.2800, -59.712
1509.3000, -59.700
1509.3200, -59.689
1509.3400, -59.678
1509.3600, -59.686
1509.3800, -59.643
1509.4000, -59.663
1509.4200, -59.642
1509.4400, -59.638
1509.4600, -59.632
1509.4800, -59.619
1509.5000, -59.607
1509.5200, -59.618
1509.5400, -59.602
1509.5600, -59.606
1509.5800, -59.609
1509.6000, -59.587
1509.6200, -59.581
1509.6400, -59.581
1509.6600, -59.571
1509.6800, -59.586
1509.7000, -59.547
1509.7200, -59.527
1509.7400, -59.524
1509.7600, -59.514
1509.7800, -59.542
1509.8000, -59.493
1509.8200, -59.520
1509.8400, -59.469
1509.8600, -59.478
1509.8800, -59.461
1509.9000, -59.466
1509.9200, -59.444
1509.9400, -59.439
1509.9600, -59.432
1509.9800, -59.441
1510.0000, -59.402
1510.0200, -59.402
1510.0400, -59.391
1510.0600, -59.384
1510.0800, -59.363
1510.1000, -59.380
1510.1200, -59.353
1510.1400, -59.348
1510.1600, -59.339
1510.1800, -59.299
1510.2000, -59.320
1510.2200, -59.315
1510.2400, -59.287
1510.2600, -59.284
1510.2800, -59.277
1510.3000, -59.273
1510.3200, -59.246
1510.3400, -59.232
1510.3600, -59.224
1510.3800, -59.231
1510.4000, -59.182
1510.4200, -59.230
1510.4400, -59.201
1510.4600, -59.175
1510.4800, -59.150
1510.5000, -59.170
1510.5200, -59.155
1510.5400, -59.170
1510.5600, -59.142
1510.5800, -59.139
1510.6000, -59.145
1510.6200, -59.133
1510.6400, -59.128
1510.6600, -59.101
1510.6800, -59.084
1510.7000, -59.080
1510.7200, -59.080
1510.7400, -59.058
1510.7600, -59.045
1510.7800, -59.028
1510.8000, -59.025
1510.8200, -59.007
1510.8400, -59.006
1510.8600, -58.988
1510.8800, -58.983
1510.9000, -58.968
1510.9200, -58.962
1510.9400, -58.972
1510.9600, -58.948
1510.9800, -58.917
1511.0000, -58.904
1511.0200, -58.901
1511.0400, -58.892
1511.0600, -58.870
1511.0800, -58.872
1511.1000, -58.864
1511.1200, -58.836
1511.1400, -58.837
1511.1600, -58.816
1511.1800, -58.821
1511.2000, -58.798
1511.2200, -58.802
1511.2400, -58.784
1511.2600, -58.782
1511.2800, -58.764
1511.3000, -58.752
1511.3200, -58.736
1511.3400, -58.741
1511.3600, -58.731
1511.3800, -58.715
1511.4000, -58.715
1511.4200, -58.700
1511.4400, -58.688
1511.4600, -58.684
1511.4800, -58.690
1511.5000, -58.661
1511.5200, -58.654
1511.5400, -58.633
1511.5600, -58.640
1511.5800, -58.612
1511.6000, -58.614
1511.6200, -58.604
1511.6400, -58.591
1511.6600, -58.568
1511.6800, -58.571
1511.7000, -58.564
1511.7200, -58.557
1511.7400, -58.540
1511.7600, -58.527
1511.7800, -58.507
1511.8000, -58.495
1511.8200, -58.499
1511.8400, -58.470
1511.8600, -58.443
1511.8800, -58.446
1511.9000, -58.430
1511.9200, -58.432
1511.9400, -58.417
1511.9600, -58.403
1511.9800, -58.388
1512.0000, -58.377
1512.0200, -58.378
1512.0400, -58.353
1512.0600, -58.354
1512.0800, -58.332
1512.1000, -58.331
1512.1200, -58.311
1512.1400, -58.325
1512.1600, -58.295
1512.1800, -58.268
1512.2000, -58.286
1512.2200, -58.263
1512.2400, -58.234
1512.2600, -58.242
1512.2800, -58.243
1512.3000, -58.222
1512.3200, -58.211
1512.3400, -58.208
1512.3600, -58.199
1512.3800, -58.192
1512.4000, -58.193
1512.4200, -58.183
1512.4400, -58.159
1512.4600, -58.168
1512.4800, -58.139
1512.5000, -58.119
1512.5200, -58.114
1512.5400, -58.096
1512.5600, -58.102
1512.5800, -58.103
1512.6000, -58.074
1512.6200, -58.072
1512.6400, -58.047
1512.6600, -58.055
1512.6800, -58.039
1512.7000, -58.011
1512.7200, -58.004
1512.7400, -57.990
1512.7600, -57.974
1512.7800, -57.981
1512.8000, -57.971
1512.8200, -57.941
1512.8400, -57.943
1512.8600, -57.931
1512.8800, -57.906
1512.9000, -57.891
1512.9200, -57.907
1512.9400, -57.859
1512.9600, -57.864
1512.9800, -57.860
1513.0000, -57.845
1513.0200, -57.834
1513.0400, -57.829
1513.0600, -57.800
1513.0800, -57.805
1513.1000, -57.785
1513.1200, -57.761
1513.1400, -57.754
1513.1600, -57.748
1513.1800, -57.741
1513.2000, -57.731
1513.2200, -57.718
1513.2400, -57.720
1513.2600, -57.717
1513.2800, -57.692
1513.3000, -57.688
1513.3200, -57.664
1513.3400, -57.664
1513.3600, -57.674
1513.3800, -57.643
1513.4000, -57.645
1513.4200, -57.640
1513.4400, -57.614
1513.4600, -57.597
1513.4800, -57.589
1513.5000, -57.578
1513.5200, -57.576
1513.5400, -57.546
1513.5600, -57.547
1513.5800, -57.537
1513.6000, -57.519
1513.6200, -57.502
1513.6400, -57.497
1513.6600, -57.476
1513.6800, -57.471
1513.7000, -57.458
1513.7200, -57.448
1513.7400, -57.434
1513.7600, -57.423
1513.7800, -57.413
1513.8000, -57.395
1513.8200, -57.378
1513.8400, -57.366
1513.8600, -57.360
1513.8800, -57.321
1513.9000, -57.318
1513.9200, -57.321
1513.9400, -57.299
1513.9600, -57.275
1513.9800, -57.285
1514.0000, -57.269
1514.0200, -57.253
1514.0400, -57.222
1514.0600, -57.223
1514.0800, -57.196
1514.1000, -57.201
1514.1200, -57.201
1514.1400, -57.175
1514.1600, -57.166
1514.1800, -57.158
1514.2000, -57.148
1514.2200, -57.135
1514.2400, -57.143
1514.2600, -57.120
1514.2800, -57.102
1514.3000, -57.106
1514.3200, -57.089
1514.3400, -57.072
1514.3600, -57.085
1514.3800, -57.060
1514.4000, -57.039
1514.4200, -57.042
1514.4400, -57.020
1514.4600, -57.006
1514.4800, -56.996
1514.5000, -56.967
1514.5200, -56.975
1514.5400, -56.948
1514.5600, -56.941
1514.5800, -56.919
1514.6000, -56.922
1514.6200, -56.899
1514.6400, -56.879
1514.6600, -56.871
1514.6800, -56.867
1514.7000, -56.863
1514.7200, -56.834
1514.7400, -56.807
1514.7600, -56.828
1514.7800, -56.789
1514.8000, -56.769
1514.8200, -56.767
1514.8400, -56.744
1514.8600, -56.731
1514.8800, -56.714
1514.9000, -56.706
1514.9200, -56.704
1514.9400, -56.683
1514.9600, -56.672
1514.9800, -56.656
1515.0000, -56.649
1515.0200, -56.642
1515.0400, -56.611
1515.0600, -56.601
1515.0800, -56.598
1515.1000, -56.576
1515.1200, -56.562
1515.1400, -56.552
1515.1600, -56.542
1515.1800, -56.530
1515.2000, -56.515
1515.2200, -56.502
1515.2400, -56.497
1515.2600, -56.480
1515.2800, -56.476
1515.3000, -56.471
1515.3200, -56.445
1515.3400, -56.452
1515.3600, -56.439
1515.3800, -56.415
1515.4000, -56.405
1515.4200, -56.394
1515.4400, -56.343
1515.4600, -56.359
1515.4800, -56.333
1515.5000, -56.340
1515.5200, -56.313
1515.5400, -56.291
1515.5600, -56.267
1515.5800, -56.269
1515.6000, -56.248
1515.6200, -56.219
1515.6400, -56.232
1515.6600, -56.205
1515.6800, -56.187
1515.7000, -56.167
1515.7200, -56.164
1515.7400, -56.152
1515.7600, -56.134
1515.7800, -56.104
1515.8000, -56.093
1515.8200, -56.078
1515.8400, -56.072
1515.8600, -56.056
1515.8800, -56.042
1515.9000, -56.036
1515.9200, -56.009
1515.9400, -56.004
1515.9600, -55.968
1515.9800, -55.975
1516.0000, -55.955
1516.0200, -55.936
1516.0400, -55.913
1516.0600, -55.909
1516.0800, -55.899
1516.1000, -55.882
1516.1200, -55.880
1516.1400, -55.861
1516.1600, -55.843
1516.1800, -55.836
1516.2000, -55.828
1516.2200, -55.788
1516.2400, -55.798
1516.2600, -55.782
1516.2800, -55.764
1516.3000, -55.752
1516.3200, -55.743
1516.3400, -55.723
1516.3600, -55.706
1516.3800, -55.672
1516.4000, -55.674
1516.4200, -55.656
1516.4400, -55.645
1516.4600, -55.623
1516.4800, -55.611
1516.5000, -55.579
1516.5200, -55.574
1516.5400, -55.557
1516.5600, -55.551
1516.5800, -55.519
1516.6000, -55.519
1516.6200, -55.486
1516.6400, -55.489
1516.6600, -55.466
1516.6800, -55.439
1516.7000, -55.409
1516.7200, -55.400
1516.7400, -55.383
1516.7600, -55.363
1516.7800, -55.347
1516.8000, -55.346
1516.8200, -55.325
1516.8400, -55.317
1516.8600, -55.305
1516.8800, -55.272
1516.9000, -55.262
1516.9200, -55.245
1516.9400, -55.217
1516.9600, -55.206
1516.9800, -55.176
1517.0000, -55.163
1517.0200, -55.150
1517.0400, -55.138
1517.0600, -55.124
1517.0800, -55.115
1517.1000, -55.095
1517.1200, -55.087
1517.1400, -55.056
1517.1600, -55.042
1517.1800, -55.053
1517.2000, -55.017
1517.2200, -54.999
1517.2400, -54.989
1517.2600, -54.974
1517.2800, -54.961
1517.3000, -54.939
1517.3200, -54.909
1517.3400, -54.884
1517.3600, -54.877
1517.3800, -54.861
1517.4000, -54.844
1517.4200, -54.820
1517.4400, -54.802
1517.4600, -54.784
1517.4800, -54.770
1517.5000, -54.754
1517.5200, -54.729
1517.5400, -54.723
1517.5600, -54.689
1517.5800, -54.665
1517.6000, -54.659
1517.6200, -54.639
1517.6400, -54.618
1517.6600, -54.585
1517.6800, -54.577
1517.7000, -54.558
1517.7200, -54.533
1517.7400, -54.520
1517.7600, -54.503
1517.7800, -54.488
1517.8000, -54.484
1517.8200, -54.451
1517.8400, -54.432
1517.8600, -54.404
1517.8800, -54.388
1517.9000, -54.360
1517.9200, -54.339
1517.9400, -54.321
1517.9600, -54.309
1517.9800, -54.295
1518.0000, -54.282
1518.0200, -54.255
1518.0400, -54.246
1518.0600, -54.224
1518.0800, -54.207
1518.1000, -54.195
1518.1200, -54.178
1518.1400, -54.159
1518.1600, -54.130
1518.1800, -54.104
1518.2000, -54.097
1518.2200, -54.089
1518.2400, -54.057
1518.2600, -54.035
1518.2800, -54.011
1518.3000, -53.990
1518.3200, -53.969
1518.3400, -53.951
1518.3600, -53.931
1518.3800, -53.912
1518.4000, -53.895
1518.4200, -53.878
1518.4400, -53.847
1518.4600, -53.821
1518.4800, -53.811
1518.5000, -53.783
1518.5200, -53.740
1518.5400, -53.739
1518.5600, -53.711
1518.5800, -53.685
1518.6000, -53.644
1518.6200, -53.638
1518.6400, -53.622
1518.6600, -53.596
1518.6800, -53.559
1518.7000, -53.553
1518.7200, -53.544
1518.7400, -53.521
1518.7600, -53.495
1518.7800, -53.452
1518.8000, -53.441
1518.8200, -53.434
1518.8400, -53.406
1518.8600, -53.373
1518.8800, -53.363
1518.9000, -53.336
1518.9200, -53.315
1518.9400, -53.284
1518.9600, -53.288
1518.9800, -53.264
1519.0000, -53.242
1519.0200, -53.216
1519.0400, -53.195
1519.0600, -53.164
1519.0800, -53.154
1519.1000, -53.117
1519.1200, -53.103
1519.1400, -53.080
1519.1600, -53.047
1519.1800, -53.036
1519.2000, -53.007
1519.2200, -52.992
1519.2400, -52.957
1519.2600, -52.942
1519.2800, -52.915
1519.3000, -52.897
1519.3200, -52.861
1519.3400, -52.838
1519.3600, -52.822
1519.3800, -52.790
1519.4000, -52.756
1519.4200, -52.720
1519.4400, -52.670
1519.4600, -52.661
1519.4800, -52.645
1519.5000, -52.627
1519.5200, -52.607
1519.5400, -52.570
1519.5600, -52.546
1519.5800, -52.530
1519.6000, -52.493
1519.6200, -52.466
1519.6400, -52.442
1519.6600, -52.416
1519.6800, -52.385
1519.7000, -52.369
1519.7200, -52.333
1519.7400, -52.311
1519.7600, -52.294
1519.7800, -52.264
1519.8000, -52.247
1519.8200, -52.215
1519.8400, -52.181
1519.8600, -52.161
1519.8800, -52.122
1519.9000, -52.120
1519.9200, -52.096
1519.9400, -52.069
1519.9600, -52.039
1519.9800, -52.021
1520.0000, -51.993
1520.0200, -51.969
1520.0400, -51.934
1520.0600, -51.902
1520.0800, -51.895
1520.1000, -51.858
1520.1200, -51.827
1520.1400, -51.789
1520.1600, -51.759
1520.1800, -51.738
1520.2000, -51.697
1520.2200, -51.677
1520.2400, -51.658
1520.2600, -51.609
1520.2800, -51.592
1520.3000, -51.565
1520.3200, -51.526
1520.3400, -51.497
1520.3600, -51.481
1520.3800, -51.437
1520.4000, -51.402
1520.4200, -51.367
1520.4400, -51.332
1520.4600, -51.313
1520.4800, -51.279
1520.5000, -51.252
1520.5200, -51.223
1520.5400, -51.187
1520.5600, -51.129
1520.5800, -51.116
1520.6000, -51.104
1520.6200, -51.074
