70BCSV 	
// AQ6370B OPTICAL SPECTRUM ANALYZER //                 
25
"CTRWL",1550.000000
"SPAN", 100.000000
"START WL",1500.000000
"STOP WL",1600.000000
"WLFREQ", 0
"REFL",-28.8
"LSCL", 5.0
"RESLN",0.100
"AVG",   1
"SMPLAUTO",      0
"SMPL",       5001
"SMPLINTVL",0.0200
"HIGH1"
"MEAS"
"LSUNT",0
"NMSKH","OFF"
"RESCOR",0
"RESPARM", 9050
"FREQPARM", 9050






"[TRACE DATA]"
1500.0000, -62.140
1500.0200, -62.173
1500.0400, -62.155
1500.0600, -62.157
1500.0800, -62.131
1500.1000, -62.158
1500.1200, -62.110
1500.1400, -62.123
1500.1600, -62.136
1500.1800, -62.107
1500.2000, -62.098
1500.2200, -62.109
1500.2400, -62.102
1500.2600, -62.121
1500.2800, -62.093
1500.3000, -62.098
1500.3200, -62.053
1500.3400, -62.096
1500.3600, -62.033
1500.3800, -62.111
1500.4000, -62.051
1500.4200, -62.058
1500.4400, -62.040
1500.4600, -62.039
1500.4800, -62.043
1500.5000, -62.032
1500.5200, -62.063
1500.5400, -62.020
1500.5600, -62.014
1500.5800, -61.994
1500.6000, -62.056
1500.6200, -61.978
1500.6400, -61.981
1500.6600, -62.045
1500.6800, -61.978
1500.7000, -61.983
1500.7200, -61.981
1500.7400, -62.006
1500.7600, -61.958
1500.7800, -61.962
1500.8000, -61.978
1500.8200, -61.933
1500.8400, -61.944
1500.8600, -61.937
1500.8800, -61.949
1500.9000, -61.938
1500.9200, -61.898
1500.9400, -61.935
1500.9600, -61.877
1500.9800, -61.887
1501.0000, -61.916
1501.0200, -61.844
1501.0400, -61.883
1501.0600, -61.898
1501.0800, -61.869
1501.1000, -61.906
1501.1200, -61.855
1501.1400, -61.817
1501.1600, -61.880
1501.1800, -61.869
1501.2000, -61.850
1501.2200, -61.859
1501.2400, -61.828
1501.2600, -61.817
1501.2800, -61.809
1501.3000, -61.816
1501.3200, -61.796
1501.3400, -61.805
1501.3600, -61.793
1501.3800, -61.779
1501.4000, -61.785
1501.4200, -61.762
1501.4400, -61.802
1501.4600, -61.750
1501.4800, -61.734
1501.5000, -61.778
1501.5200, -61.770
1501.5400, -61.705
1501.5600, -61.748
1501.5800, -61.731
1501.6000, -61.751
1501.6200, -61.728
1501.6400, -61.734
1501.6600, -61.666
1501.6800, -61.708
1501.7000, -61.712
1501.7200, -61.720
1501.7400, -61.680
1501.7600, -61.675
1501.7800, -61.707
1501.8000, -61.691
1501.8200, -61.693
1501.8400, -61.677
1501.8600, -61.644
1501.8800, -61.643
1501.9000, -61.637
1501.9200, -61.640
1501.9400, -61.646
1501.9600, -61.618
1501.9800, -61.603
1502.0000, -61.599
1502.0200, -61.614
1502.0400, -61.580
1502.0600, -61.602
1502.0800, -61.585
1502.1000, -61.572
1502.1200, -61.600
1502.1400, -61.571
1502.1600, -61.564
1502.1800, -61.547
1502.2000, -61.544
1502.2200, -61.546
1502.2400, -61.526
1502.2600, -61.544
1502.2800, -61.532
1502.3000, -61.504
1502.3200, -61.500
1502.3400, -61.500
1502.3600, -61.516
1502.3800, -61.486
1502.4000, -61.526
1502.4200, -61.488
1502.4400, -61.466
1502.4600, -61.453
1502.4800, -61.432
1502.5000, -61.480
1502.5200, -61.447
1502.5400, -61.433
1502.5600, -61.448
1502.5800, -61.416
1502.6000, -61.446
1502.6200, -61.449
1502.6400, -61.394
1502.6600, -61.379
1502.6800, -61.428
1502.7000, -61.398
1502.7200, -61.384
1502.7400, -61.386
1502.7600, -61.351
1502.7800, -61.370
1502.8000, -61.384
1502.8200, -61.374
1502.8400, -61.337
1502.8600, -61.334
1502.8800, -61.323
1502.9000, -61.319
1502.9200, -61.324
1502.9400, -61.332
1502.9600, -61.291
1502.9800, -61.307
1503.0000, -61.226
1503.0200, -61.314
1503.0400, -61.277
1503.0600, -61.249
1503.0800, -61.262
1503.1000, -61.292
1503.1200, -61.254
1503.1400, -61.217
1503.1600, -61.225
1503.1800, -61.255
1503.2000, -61.232
1503.2200, -61.232
1503.2400, -61.209
1503.2600, -61.169
1503.2800, -61.220
1503.3000, -61.184
1503.3200, -61.216
1503.3400, -61.165
1503.3600, -61.197
1503.3800, -61.153
1503.4000, -61.145
1503.4200, -61.153
1503.4400, -61.161
1503.4600, -61.160
1503.4800, -61.150
1503.5000, -61.124
1503.5200, -61.105
1503.5400, -61.111
1503.5600, -61.105
1503.5800, -61.113
1503.6000, -61.062
1503.6200, -61.102
1503.6400, -61.091
1503.6600, -61.061
1503.6800, -61.072
1503.7000, -61.046
1503.7200, -61.061
1503.7400, -61.027
1503.7600, -61.045
1503.7800, -61.037
1503.8000, -61.028
1503.8200, -61.029
1503.8400, -61.019
1503.8600, -60.990
1503.8800, -61.037
1503.9000, -61.005
1503.9200, -61.002
1503.9400, -60.979
1503.9600, -60.947
1503.9800, -60.966
1504.0000, -60.956
1504.0200, -60.980
1504.0400, -60.944
1504.0600, -60.933
1504.0800, -60.945
1504.1000, -60.931
1504.1200, -60.902
1504.1400, -60.941
1504.1600, -60.875
1504.1800, -60.912
1504.2000, -60.898
1504.2200, -60.833
1504.2400, -60.887
1504.2600, -60.845
1504.2800, -60.853
1504.3000, -60.866
1504.3200, -60.849
1504.3400, -60.854
1504.3600, -60.826
1504.3800, -60.876
1504.4000, -60.798
1504.4200, -60.787
1504.4400, -60.827
1504.4600, -60.795
1504.4800, -60.775
1504.5000, -60.778
1504.5200, -60.794
1504.5400, -60.762
1504.5600, -60.739
1504.5800, -60.759
1504.6000, -60.749
1504.6200, -60.759
1504.6400, -60.754
1504.6600, -60.720
1504.6800, -60.707
1504.7000, -60.726
1504.7200, -60.700
1504.7400, -60.684
1504.7600, -60.683
1504.7800, -60.689
1504.8000, -60.692
1504.8200, -60.680
1504.8400, -60.663
1504.8600, -60.644
1504.8800, -60.634
1504.9000, -60.658
1504.9200, -60.614
1504.9400, -60.616
1504.9600, -60.633
1504.9800, -60.591
1505.0000, -60.590
1505.0200, -60.597
1505.0400, -60.604
1505.0600, -60.553
1505.0800, -60.589
1505.1000, -60.547
1505.1200, -60.584
1505.1400, -60.527
1505.1600, -60.521
1505.1800, -60.552
1505.2000, -60.518
1505.2200, -60.516
1505.2400, -60.525
1505.2600, -60.528
1505.2800, -60.503
1505.3000, -60.481
1505.3200, -60.487
1505.3400, -60.486
1505.3600, -60.470
1505.3800, -60.432
1505.4000, -60.452
1505.4200, -60.457
1505.4400, -60.443
1505.4600, -60.423
1505.4800, -60.426
1505.5000, -60.407
1505.5200, -60.415
1505.5400, -60.392
1505.5600, -60.364
1505.5800, -60.397
1505.6000, -60.370
1505.6200, -60.383
1505.6400, -60.354
1505.6600, -60.341
1505.6800, -60.333
1505.7000, -60.323
1505.7200, -60.340
1505.7400, -60.339
1505.7600, -60.313
1505.7800, -60.303
1505.8000, -60.291
1505.8200, -60.279
1505.8400, -60.277
1505.8600, -60.278
1505.8800, -60.267
1505.9000, -60.265
1505.9200, -60.246
1505.9400, -60.255
1505.9600, -60.265
1505.9800, -60.246
1506.0000, -60.232
1506.0200, -60.184
1506.0400, -60.194
1506.0600, -60.179
1506.0800, -60.205
1506.1000, -60.192
1506.1200, -60.172
1506.1400, -60.150
1506.1600, -60.136
1506.1800, -60.154
1506.2000, -60.172
1506.2200, -60.121
1506.2400, -60.133
1506.2600, -60.139
1506.2800, -60.113
1506.3000, -60.112
1506.3200, -60.122
1506.3400, -60.104
1506.3600, -60.080
1506.3800, -60.079
1506.4000, -60.082
1506.4200, -60.078
1506.4400, -60.066
1506.4600, -60.020
1506.4800, -60.060
1506.5000, -60.045
1506.5200, -60.000
1506.5400, -60.014
1506.5600, -60.004
1506.5800, -59.994
1506.6000, -59.987
1506.6200, -59.993
1506.6400, -59.968
1506.6600, -59.970
1506.6800, -59.972
1506.7000, -59.946
1506.7200, -59.926
1506.7400, -59.934
1506.7600, -59.917
1506.7800, -59.923
1506.8000, -59.905
1506.8200, -59.900
1506.8400, -59.890
1506.8600, -59.880
1506.8800, -59.893
1506.9000, -59.844
1506.9200, -59.860
1506.9400, -59.839
1506.9600, -59.852
1506.9800, -59.833
1507.0000, -59.837
1507.0200, -59.829
1507.0400, -59.813
1507.0600, -59.799
1507.0800, -59.797
1507.1000, -59.819
1507.1200, -59.753
1507.1400, -59.803
1507.1600, -59.780
1507.1800, -59.758
1507.2000, -59.752
1507.2200, -59.765
1507.2400, -59.723
1507.2600, -59.725
1507.2800, -59.739
1507.3000, -59.741
1507.3200, -59.731
1507.3400, -59.699
1507.3600, -59.693
1507.3800, -59.677
1507.4000, -59.680
1507.4200, -59.664
1507.4400, -59.663
1507.4600, -59.651
1507.4800, -59.629
1507.5000, -59.640
1507.5200, -59.625
1507.5400, -59.615
1507.5600, -59.610
1507.5800, -59.596
1507.6000, -59.589
1507.6200, -59.588
1507.6400, -59.572
1507.6600, -59.543
1507.6800, -59.561
1507.7000, -59.565
1507.7200, -59.539
1507.7400, -59.523
1507.7600, -59.526
1507.7800, -59.551
1507.8000, -59.477
1507.8200, -59.491
1507.8400, -59.505
1507.8600, -59.464
1507.8800, -59.497
1507.9000, -59.456
1507.9200, -59.449
1507.9400, -59.453
1507.9600, -59.439
1507.9800, -59.452
1508.0000, -59.432
1508.0200, -59.406
1508.0400, -59.419
1508.0600, -59.412
1508.0800, -59.389
1508.1000, -59.404
1508.1200, -59.368
1508.1400, -59.372
1508.1600, -59.360
1508.1800, -59.377
1508.2000, -59.349
1508.2200, -59.338
1508.2400, -59.335
1508.2600, -59.333
1508.2800, -59.341
1508.3000, -59.322
1508.3200, -59.310
1508.3400, -59.297
1508.3600, -59.306
1508.3800, -59.265
1508.4000, -59.286
1508.4200, -59.243
1508.4400, -59.257
1508.4600, -59.240
1508.4800, -59.234
1508.5000, -59.229
1508.5200, -59.246
1508.5400, -59.207
1508.5600, -59.226
1508.5800, -59.196
1508.6000, -59.174
1508.6200, -59.170
1508.6400, -59.166
1508.6600, -59.171
1508.6800, -59.149
1508.7000, -59.149
1508.7200, -59.147
1508.7400, -59.134
1508.7600, -59.122
1508.7800, -59.100
1508.8000, -59.099
1508.8200, -59.107
1508.8400, -59.087
1508.8600, -59.081
1508.8800, -59.061
1508.9000, -59.063
1508.9200, -59.058
1508.9400, -59.038
1508.9600, -59.049
1508.9800, -59.035
1509.0000, -59.016
1509.0200, -59.013
1509.0400, -58.983
1509.0600, -59.003
1509.0800, -58.994
1509.1000, -58.984
1509.1200, -58.986
1509.1400, -58.964
1509.1600, -58.977
1509.1800, -58.943
1509.2000, -58.935
1509.2200, -58.905
1509.2400, -58.924
1509.2600, -58.912
1509.2800, -58.895
1509.3000, -58.888
1509.3200, -58.889
1509.3400, -58.872
1509.3600, -58.861
1509.3800, -58.864
1509.4000, -58.836
1509.4200, -58.866
1509.4400, -58.816
1509.4600, -58.813
1509.4800, -58.796
1509.5000, -58.802
1509.5200, -58.791
1509.5400, -58.782
1509.5600, -58.772
1509.5800, -58.754
1509.6000, -58.765
1509.6200, -58.749
1509.6400, -58.746
1509.6600, -58.735
1509.6800, -58.733
1509.7000, -58.693
1509.7200, -58.708
1509.7400, -58.696
1509.7600, -58.680
1509.7800, -58.675
1509.8000, -58.648
1509.8200, -58.652
1509.8400, -58.624
1509.8600, -58.650
1509.8800, -58.637
1509.9000, -58.622
1509.9200, -58.600
1509.9400, -58.622
1509.9600, -58.599
1509.9800, -58.578
1510.0000, -58.572
1510.0200, -58.580
1510.0400, -58.567
1510.0600, -58.567
1510.0800, -58.557
1510.1000, -58.537
1510.1200, -58.541
1510.1400, -58.486
1510.1600, -58.528
1510.1800, -58.490
1510.2000, -58.482
1510.2200, -58.500
1510.2400, -58.463
1510.2600, -58.458
1510.2800, -58.442
1510.3000, -58.436
1510.3200, -58.440
1510.3400, -58.411
1510.3600, -58.393
1510.3800, -58.388
1510.4000, -58.384
1510.4200, -58.386
1510.4400, -58.354
1510.4600, -58.352
1510.4800, -58.322
1510.5000, -58.319
1510.5200, -58.320
1510.5400, -58.294
1510.5600, -58.296
1510.5800, -58.301
1510.6000, -58.306
1510.6200, -58.260
1510.6400, -58.248
1510.6600, -58.242
1510.6800, -58.230
1510.7000, -58.214
1510.7200, -58.206
1510.7400, -58.185
1510.7600, -58.188
1510.7800, -58.169
1510.8000, -58.176
1510.8200, -58.159
1510.8400, -58.156
1510.8600, -58.131
1510.8800, -58.129
1510.9000, -58.111
1510.9200, -58.099
1510.9400, -58.095
1510.9600, -58.088
1510.9800, -58.086
1511.0000, -58.066
1511.0200, -58.073
1511.0400, -58.059
1511.0600, -58.020
1511.0800, -58.017
1511.1000, -58.012
1511.1200, -58.009
1511.1400, -57.992
1511.1600, -57.972
1511.1800, -57.969
1511.2000, -57.953
1511.2200, -57.947
1511.2400, -57.939
1511.2600, -57.932
1511.2800, -57.926
1511.3000, -57.924
1511.3200, -57.885
1511.3400, -57.902
1511.3600, -57.868
1511.3800, -57.865
1511.4000, -57.861
1511.4200, -57.845
1511.4400, -57.816
1511.4600, -57.807
1511.4800, -57.788
1511.5000, -57.790
1511.5200, -57.790
1511.5400, -57.770
1511.5600, -57.766
1511.5800, -57.746
1511.6000, -57.744
1511.6200, -57.731
1511.6400, -57.712
1511.6600, -57.702
1511.6800, -57.694
1511.7000, -57.689
1511.7200, -57.673
1511.7400, -57.656
1511.7600, -57.652
1511.7800, -57.633
1511.8000, -57.645
1511.8200, -57.619
1511.8400, -57.604
1511.8600, -57.577
1511.8800, -57.593
1511.9000, -57.572
1511.9200, -57.562
1511.9400, -57.556
1511.9600, -57.540
1511.9800, -57.531
1512.0000, -57.505
1512.0200, -57.504
1512.0400, -57.501
1512.0600, -57.490
1512.0800, -57.468
1512.1000, -57.468
1512.1200, -57.472
1512.1400, -57.436
1512.1600, -57.424
1512.1800, -57.426
1512.2000, -57.406
1512.2200, -57.417
1512.2400, -57.391
1512.2600, -57.384
1512.2800, -57.374
1512.3000, -57.355
1512.3200, -57.347
1512.3400, -57.308
1512.3600, -57.326
1512.3800, -57.300
1512.4000, -57.307
1512.4200, -57.282
1512.4400, -57.291
1512.4600, -57.264
1512.4800, -57.240
1512.5000, -57.234
1512.5200, -57.236
1512.5400, -57.216
1512.5600, -57.199
1512.5800, -57.183
1512.6000, -57.171
1512.6200, -57.177
1512.6400, -57.155
1512.6600, -57.148
1512.6800, -57.131
1512.7000, -57.126
1512.7200, -57.105
1512.7400, -57.095
1512.7600, -57.085
1512.7800, -57.085
1512.8000, -57.059
1512.8200, -57.062
1512.8400, -57.041
1512.8600, -57.033
1512.8800, -57.019
1512.9000, -57.022
1512.9200, -57.005
1512.9400, -56.997
1512.9600, -56.983
1512.9800, -56.969
1513.0000, -56.950
1513.0200, -56.950
1513.0400, -56.935
1513.0600, -56.923
1513.0800, -56.905
1513.1000, -56.894
1513.1200, -56.897
1513.1400, -56.872
1513.1600, -56.880
1513.1800, -56.865
1513.2000, -56.857
1513.2200, -56.836
1513.2400, -56.818
1513.2600, -56.804
1513.2800, -56.793
1513.3000, -56.783
1513.3200, -56.769
1513.3400, -56.753
1513.3600, -56.736
1513.3800, -56.729
1513.4000, -56.722
1513.4200, -56.703
1513.4400, -56.701
1513.4600, -56.676
1513.4800, -56.678
1513.5000, -56.642
1513.5200, -56.642
1513.5400, -56.628
1513.5600, -56.618
1513.5800, -56.599
1513.6000, -56.579
1513.6200, -56.582
1513.6400, -56.569
1513.6600, -56.556
1513.6800, -56.544
1513.7000, -56.530
1513.7200, -56.527
1513.7400, -56.505
1513.7600, -56.493
1513.7800, -56.483
1513.8000, -56.474
1513.8200, -56.465
1513.8400, -56.452
1513.8600, -56.434
1513.8800, -56.428
1513.9000, -56.408
1513.9200, -56.394
1513.9400, -56.379
1513.9600, -56.375
1513.9800, -56.362
1514.0000, -56.345
1514.0200, -56.336
1514.0400, -56.318
1514.0600, -56.310
1514.0800, -56.293
1514.1000, -56.289
1514.1200, -56.273
1514.1400, -56.258
1514.1600, -56.250
1514.1800, -56.228
1514.2000, -56.234
1514.2200, -56.215
1514.2400, -56.202
1514.2600, -56.168
1514.2800, -56.165
1514.3000, -56.142
1514.3200, -56.137
1514.3400, -56.128
1514.3600, -56.102
1514.3800, -56.097
1514.4000, -56.091
1514.4200, -56.075
1514.4400, -56.061
1514.4600, -56.049
1514.4800, -56.027
1514.5000, -56.031
1514.5200, -55.997
1514.5400, -55.989
1514.5600, -55.978
1514.5800, -55.971
1514.6000, -55.955
1514.6200, -55.951
1514.6400, -55.933
1514.6600, -55.918
1514.6800, -55.903
1514.7000, -55.888
1514.7200, -55.869
1514.7400, -55.871
1514.7600, -55.858
1514.7800, -55.843
1514.8000, -55.841
1514.8200, -55.815
1514.8400, -55.801
1514.8600, -55.797
1514.8800, -55.781
1514.9000, -55.774
1514.9200, -55.748
1514.9400, -55.744
1514.9600, -55.725
1514.9800, -55.712
1515.0000, -55.695
1515.0200, -55.690
1515.0400, -55.664
1515.0600, -55.653
1515.0800, -55.643
1515.1000, -55.627
1515.1200, -55.614
1515.1400, -55.597
1515.1600, -55.585
1515.1800, -55.576
1515.2000, -55.549
1515.2200, -55.526
1515.2400, -55.521
1515.2600, -55.507
1515.2800, -55.495
1515.3000, -55.467
1515.3200, -55.465
1515.3400, -55.446
1515.3600, -55.446
1515.3800, -55.421
1515.4000, -55.398
1515.4200, -55.400
1515.4400, -55.379
1515.4600, -55.367
1515.4800, -55.343
1515.5000, -55.333
1515.5200, -55.321
1515.5400, -55.309
1515.5600, -55.296
1515.5800, -55.283
1515.6000, -55.263
1515.6200, -55.253
1515.6400, -55.246
1515.6600, -55.221
1515.6800, -55.218
1515.7000, -55.195
1515.7200, -55.189
1515.7400, -55.169
1515.7600, -55.162
1515.7800, -55.144
1515.8000, -55.133
1515.8200, -55.122
1515.8400, -55.103
1515.8600, -55.079
1515.8800, -55.068
1515.9000, -55.053
1515.9200, -55.042
1515.9400, -55.027
1515.9600, -54.999
1515.9800, -55.001
1516.0000, -54.986
1516.0200, -54.959
1516.0400, -54.950
1516.0600, -54.943
1516.0800, -54.905
1516.1000, -54.902
1516.1200, -54.887
1516.1400, -54.865
1516.1600, -54.850
1516.1800, -54.824
1516.2000, -54.811
1516.2200, -54.806
1516.2400, -54.789
1516.2600, -54.770
1516.2800, -54.763
1516.3000, -54.748
1516.3200, -54.717
1516.3400, -54.718
1516.3600, -54.689
1516.3800, -54.669
1516.4000, -54.662
1516.4200, -54.655
1516.4400, -54.637
1516.4600, -54.625
1516.4800, -54.595
1516.5000, -54.575
1516.5200, -54.560
1516.5400, -54.536
1516.5600, -54.533
1516.5800, -54.519
1516.6000, -54.504
1516.6200, -54.479
1516.6400, -54.463
1516.6600, -54.447
1516.6800, -54.443
1516.7000, -54.432
1516.7200, -54.397
1516.7400, -54.386
1516.7600, -54.374
1516.7800, -54.350
1516.8000, -54.329
1516.8200, -54.327
1516.8400, -54.318
1516.8600, -54.286
1516.8800, -54.267
1516.9000, -54.244
1516.9200, -54.238
1516.9400, -54.229
1516.9600, -54.193
1516.9800, -54.173
1517.0000, -54.154
1517.0200, -54.136
1517.0400, -54.114
1517.0600, -54.100
1517.0800, -54.097
1517.1000, -54.060
1517.1200, -54.046
1517.1400, -54.023
1517.1600, -54.014
1517.1800, -53.997
1517.2000, -53.983
1517.2200, -53.953
1517.2400, -53.933
1517.2600, -53.915
1517.2800, -53.902
1517.3000, -53.886
1517.3200, -53.856
1517.3400, -53.851
1517.3600, -53.834
1517.3800, -53.822
1517.4000, -53.788
1517.4200, -53.766
1517.4400, -53.750
1517.4600, -53.738
1517.4800, -53.720
1517.5000, -53.702
1517.5200, -53.677
1517.5400, -53.666
1517.5600, -53.645
1517.5800, -53.624
1517.6000, -53.614
1517.6200, -53.595
1517.6400, -53.574
1517.6600, -53.555
1517.6800, -53.529
1517.7000, -53.511
1517.7200, -53.494
1517.7400, -53.459
1517.7600, -53.465
1517.7800, -53.447
1517.8000, -53.411
1517.8200, -53.392
1517.8400, -53.371
1517.8600, -53.353
1517.8800, -53.344
1517.9000, -53.309
1517.9200, -53.295
1517.9400, -53.266
1517.9600, -53.249
1517.9800, -53.229
1518.0000, -53.219
1518.0200, -53.197
1518.0400, -53.167
1518.0600, -53.147
1518.0800, -53.124
1518.1000, -53.105
1518.1200, -53.090
1518.1400, -53.066
1518.1600, -53.043
1518.1800, -53.017
1518.2000, -53.000
1518.2200, -52.988
1518.2400, -52.963
1518.2600, -52.934
1518.2800, -52.925
1518.3000, -52.911
1518.3200, -52.870
1518.3400, -52.854
1518.3600, -52.825
1518.3800, -52.833
1518.4000, -52.795
1518.4200, -52.773
1518.4400, -52.751
1518.4600, -52.728
1518.4800, -52.705
1518.5000, -52.679
1518.5200, -52.664
1518.5400, -52.649
1518.5600, -52.624
1518.5800, -52.605
1518.6000, -52.573
1518.6200, -52.556
1518.6400, -52.536
1518.6600, -52.518
1518.6800, -52.493
1518.7000, -52.479
1518.7200, -52.456
1518.7400, -52.425
1518.7600, -52.396
1518.7800, -52.367
1518.8000, -52.353
1518.8200, -52.345
1518.8400, -52.308
1518.8600, -52.288
1518.8800, -52.261
1518.9000, -52.234
1518.9200, -52.220
1518.9400, -52.190
1518.9600, -52.171
1518.9800, -52.135
1519.0000, -52.111
1519.0200, -52.090
1519.0400, -52.058
1519.0600, -52.050
1519.0800, -52.023
1519.1000, -51.994
1519.1200, -51.964
1519.1400, -51.940
1519.1600, -51.909
1519.1800, -51.890
1519.2000, -51.876
1519.2200, -51.844
1519.2400, -51.827
1519.2600, -51.806
1519.2800, -51.760
1519.3000, -51.749
1519.3200, -51.722
1519.3400, -51.687
1519.3600, -51.665
1519.3800, -51.635
1519.4000, -51.612
1519.4200, -51.585
1519.4400, -51.562
1519.4600, -51.542
1519.4800, -51.512
1519.5000, -51.486
1519.5200, -51.469
1519.5400, -51.443
1519.5600, -51.419
1519.5800, -51.386
1519.6000, -51.352
1519.6200, -51.341
1519.6400, -51.298
1519.6600, -51.280
1519.6800, -51.253
1519.7000, -51.228
1519.7200, -51.205
1519.7400, -51.179
1519.7600, -51.152
1519.7800, -51.114
1519.8000, -51.086
1519.8200, -51.059
1519.8400, -51.028
1519.8600, -51.002
1519.8800, -50.971
1519.9000, -50.953
1519.9200, -50.923
1519.9400, -50.893
1519.9600, -50.853
1519.9800, -50.830
1520.0000, -50.806
1520.0200, -50.770
1520.0400, -50.740
1520.0600, -50.714
1520.0800, -50.685
1520.1000, -50.643
1520.1200, -50.623
1520.1400, -50.595
1520.1600, -50.555
1520.1800, -50.521
1520.2000, -50.490
1520.2200, -50.464
1520.2400, -50.454
1520.2600, -50.420
1520.2800, -50.396
1520.3000, -50.358
1520.3200, -50.316
1520.3400, -50.290
1520.3600, -50.253
1520.3800, -50.232
1520.4000, -50.221
1520.4200, -50.179
1520.4400, -50.141
1520.4600, -50.118
1520.4800, -50.081
1520.5000, -50.052
1520.5200, -50.013
1520.5400, -49.985
1520.5600, -49.954
1520.5800, -49.918
1520.6000, -49.885
1520.6200, -49.868
