70BCSV 	
// AQ6370B OPTICAL SPECTRUM ANALYZER //                 
25
"CTRWL",1550.000000
"SPAN", 100.000000
"START WL",1500.000000
"STOP WL",1600.000000
"WLFREQ", 0
"REFL",-28.8
"LSCL", 5.0
"RESLN",0.100
"AVG",   1
"SMPLAUTO",      0
"SMPL",       5001
"SMPLINTVL",0.0200
"HIGH1"
"MEAS"
"LSUNT",0
"NMSKH","OFF"
"RESCOR",0
"RESPARM", 9050
"FREQPARM", 9050






"[TRACE DATA]"
1500.0000, -62.087
1500.0200, -62.065
1500.0400, -62.033
1500.0600, -62.037
1500.0800, -62.052
1500.1000, -62.046
1500.1200, -62.044
1500.1400, -62.021
1500.1600, -62.024
1500.1800, -62.042
1500.2000, -62.002
1500.2200, -62.015
1500.2400, -61.996
1500.2600, -62.000
1500.2800, -62.013
1500.3000, -61.998
1500.3200, -61.984
1500.3400, -62.016
1500.3600, -61.995
1500.3800, -61.944
1500.4000, -61.930
1500.4200, -61.979
1500.4400, -61.984
1500.4600, -61.975
1500.4800, -61.932
1500.5000, -61.912
1500.5200, -61.974
1500.5400, -61.950
1500.5600, -61.911
1500.5800, -61.947
1500.6000, -61.913
1500.6200, -61.921
1500.6400, -61.871
1500.6600, -61.900
1500.6800, -61.890
1500.7000, -61.909
1500.7200, -61.877
1500.7400, -61.877
1500.7600, -61.876
1500.7800, -61.855
1500.8000, -61.874
1500.8200, -61.852
1500.8400, -61.859
1500.8600, -61.835
1500.8800, -61.843
1500.9000, -61.833
1500.9200, -61.825
1500.9400, -61.783
1500.9600, -61.793
1500.9800, -61.789
1501.0000, -61.794
1501.0200, -61.761
1501.0400, -61.794
1501.0600, -61.787
1501.0800, -61.786
1501.1000, -61.751
1501.1200, -61.756
1501.1400, -61.762
1501.1600, -61.751
1501.1800, -61.760
1501.2000, -61.738
1501.2200, -61.753
1501.2400, -61.732
1501.2600, -61.714
1501.2800, -61.712
1501.3000, -61.698
1501.3200, -61.722
1501.3400, -61.686
1501.3600, -61.689
1501.3800, -61.704
1501.4000, -61.689
1501.4200, -61.664
1501.4400, -61.672
1501.4600, -61.684
1501.4800, -61.674
1501.5000, -61.677
1501.5200, -61.654
1501.5400, -61.668
1501.5600, -61.644
1501.5800, -61.664
1501.6000, -61.627
1501.6200, -61.623
1501.6400, -61.650
1501.6600, -61.603
1501.6800, -61.577
1501.7000, -61.631
1501.7200, -61.606
1501.7400, -61.593
1501.7600, -61.577
1501.7800, -61.584
1501.8000, -61.589
1501.8200, -61.595
1501.8400, -61.552
1501.8600, -61.576
1501.8800, -61.571
1501.9000, -61.561
1501.9200, -61.532
1501.9400, -61.527
1501.9600, -61.537
1501.9800, -61.537
1502.0000, -61.499
1502.0200, -61.501
1502.0400, -61.504
1502.0600, -61.505
1502.0800, -61.499
1502.1000, -61.487
1502.1200, -61.479
1502.1400, -61.484
1502.1600, -61.453
1502.1800, -61.492
1502.2000, -61.462
1502.2200, -61.409
1502.2400, -61.452
1502.2600, -61.435
1502.2800, -61.449
1502.3000, -61.427
1502.3200, -61.381
1502.3400, -61.400
1502.3600, -61.419
1502.3800, -61.410
1502.4000, -61.401
1502.4200, -61.396
1502.4400, -61.390
1502.4600, -61.353
1502.4800, -61.354
1502.5000, -61.404
1502.5200, -61.326
1502.5400, -61.345
1502.5600, -61.356
1502.5800, -61.332
1502.6000, -61.316
1502.6200, -61.327
1502.6400, -61.309
1502.6600, -61.298
1502.6800, -61.302
1502.7000, -61.277
1502.7200, -61.310
1502.7400, -61.304
1502.7600, -61.292
1502.7800, -61.290
1502.8000, -61.273
1502.8200, -61.243
1502.8400, -61.248
1502.8600, -61.251
1502.8800, -61.293
1502.9000, -61.215
1502.9200, -61.218
1502.9400, -61.197
1502.9600, -61.204
1502.9800, -61.190
1503.0000, -61.163
1503.0200, -61.199
1503.0400, -61.190
1503.0600, -61.189
1503.0800, -61.167
1503.1000, -61.176
1503.1200, -61.185
1503.1400, -61.107
1503.1600, -61.132
1503.1800, -61.124
1503.2000, -61.143
1503.2200, -61.116
1503.2400, -61.111
1503.2600, -61.117
1503.2800, -61.113
1503.3000, -61.098
1503.3200, -61.079
1503.3400, -61.061
1503.3600, -61.080
1503.3800, -61.118
1503.4000, -61.071
1503.4200, -61.057
1503.4400, -61.041
1503.4600, -61.050
1503.4800, -61.052
1503.5000, -61.028
1503.5200, -61.034
1503.5400, -60.988
1503.5600, -61.022
1503.5800, -61.018
1503.6000, -60.977
1503.6200, -61.000
1503.6400, -60.969
1503.6600, -60.962
1503.6800, -60.976
1503.7000, -60.974
1503.7200, -60.960
1503.7400, -60.943
1503.7600, -60.902
1503.7800, -60.928
1503.8000, -60.935
1503.8200, -60.899
1503.8400, -60.904
1503.8600, -60.927
1503.8800, -60.912
1503.9000, -60.891
1503.9200, -60.896
1503.9400, -60.910
1503.9600, -60.874
1503.9800, -60.851
1504.0000, -60.907
1504.0200, -60.853
1504.0400, -60.854
1504.0600, -60.845
1504.0800, -60.817
1504.1000, -60.839
1504.1200, -60.837
1504.1400, -60.768
1504.1600, -60.810
1504.1800, -60.778
1504.2000, -60.796
1504.2200, -60.786
1504.2400, -60.769
1504.2600, -60.795
1504.2800, -60.757
1504.3000, -60.730
1504.3200, -60.733
1504.3400, -60.754
1504.3600, -60.743
1504.3800, -60.757
1504.4000, -60.705
1504.4200, -60.714
1504.4400, -60.718
1504.4600, -60.707
1504.4800, -60.656
1504.5000, -60.692
1504.5200, -60.667
1504.5400, -60.671
1504.5600, -60.669
1504.5800, -60.649
1504.6000, -60.638
1504.6200, -60.640
1504.6400, -60.625
1504.6600, -60.635
1504.6800, -60.622
1504.7000, -60.585
1504.7200, -60.609
1504.7400, -60.614
1504.7600, -60.613
1504.7800, -60.564
1504.8000, -60.587
1504.8200, -60.581
1504.8400, -60.559
1504.8600, -60.538
1504.8800, -60.536
1504.9000, -60.530
1504.9200, -60.501
1504.9400, -60.523
1504.9600, -60.494
1504.9800, -60.542
1505.0000, -60.490
1505.0200, -60.463
1505.0400, -60.483
1505.0600, -60.504
1505.0800, -60.440
1505.1000, -60.447
1505.1200, -60.441
1505.1400, -60.424
1505.1600, -60.461
1505.1800, -60.457
1505.2000, -60.380
1505.2200, -60.459
1505.2400, -60.428
1505.2600, -60.380
1505.2800, -60.421
1505.3000, -60.372
1505.3200, -60.384
1505.3400, -60.380
1505.3600, -60.358
1505.3800, -60.360
1505.4000, -60.332
1505.4200, -60.331
1505.4400, -60.327
1505.4600, -60.296
1505.4800, -60.296
1505.5000, -60.320
1505.5200, -60.294
1505.5400, -60.307
1505.5600, -60.276
1505.5800, -60.274
1505.6000, -60.256
1505.6200, -60.256
1505.6400, -60.267
1505.6600, -60.251
1505.6800, -60.226
1505.7000, -60.231
1505.7200, -60.233
1505.7400, -60.236
1505.7600, -60.215
1505.7800, -60.219
1505.8000, -60.190
1505.8200, -60.188
1505.8400, -60.183
1505.8600, -60.178
1505.8800, -60.143
1505.9000, -60.157
1505.9200, -60.136
1505.9400, -60.134
1505.9600, -60.120
1505.9800, -60.123
1506.0000, -60.116
1506.0200, -60.111
1506.0400, -60.094
1506.0600, -60.090
1506.0800, -60.082
1506.1000, -60.104
1506.1200, -60.074
1506.1400, -60.067
1506.1600, -60.079
1506.1800, -60.014
1506.2000, -60.041
1506.2200, -60.046
1506.2400, -60.040
1506.2600, -60.028
1506.2800, -60.002
1506.3000, -59.994
1506.3200, -59.997
1506.3400, -60.001
1506.3600, -59.980
1506.3800, -59.974
1506.4000, -59.974
1506.4200, -59.959
1506.4400, -59.942
1506.4600, -59.956
1506.4800, -59.928
1506.5000, -59.930
1506.5200, -59.913
1506.5400, -59.907
1506.5600, -59.913
1506.5800, -59.900
1506.6000, -59.881
1506.6200, -59.918
1506.6400, -59.857
1506.6600, -59.839
1506.6800, -59.860
1506.7000, -59.829
1506.7200, -59.826
1506.7400, -59.827
1506.7600, -59.818
1506.7800, -59.801
1506.8000, -59.813
1506.8200, -59.798
1506.8400, -59.820
1506.8600, -59.753
1506.8800, -59.774
1506.9000, -59.759
1506.9200, -59.770
1506.9400, -59.743
1506.9600, -59.746
1506.9800, -59.751
1507.0000, -59.712
1507.0200, -59.716
1507.0400, -59.713
1507.0600, -59.696
1507.0800, -59.699
1507.1000, -59.667
1507.1200, -59.678
1507.1400, -59.673
1507.1600, -59.688
1507.1800, -59.636
1507.2000, -59.658
1507.2200, -59.611
1507.2400, -59.658
1507.2600, -59.641
1507.2800, -59.644
1507.3000, -59.624
1507.3200, -59.602
1507.3400, -59.604
1507.3600, -59.580
1507.3800, -59.588
1507.4000, -59.559
1507.4200, -59.576
1507.4400, -59.551
1507.4600, -59.551
1507.4800, -59.528
1507.5000, -59.528
1507.5200, -59.517
1507.5400, -59.518
1507.5600, -59.500
1507.5800, -59.494
1507.6000, -59.490
1507.6200, -59.479
1507.6400, -59.490
1507.6600, -59.462
1507.6800, -59.450
1507.7000, -59.446
1507.7200, -59.416
1507.7400, -59.441
1507.7600, -59.404
1507.7800, -59.414
1507.8000, -59.394
1507.8200, -59.384
1507.8400, -59.382
1507.8600, -59.409
1507.8800, -59.348
1507.9000, -59.355
1507.9200, -59.350
1507.9400, -59.354
1507.9600, -59.313
1507.9800, -59.321
1508.0000, -59.320
1508.0200, -59.324
1508.0400, -59.293
1508.0600, -59.306
1508.0800, -59.296
1508.1000, -59.282
1508.1200, -59.281
1508.1400, -59.257
1508.1600, -59.268
1508.1800, -59.252
1508.2000, -59.251
1508.2200, -59.266
1508.2400, -59.236
1508.2600, -59.229
1508.2800, -59.225
1508.3000, -59.201
1508.3200, -59.213
1508.3400, -59.198
1508.3600, -59.187
1508.3800, -59.175
1508.4000, -59.152
1508.4200, -59.168
1508.4400, -59.143
1508.4600, -59.141
1508.4800, -59.129
1508.5000, -59.110
1508.5200, -59.123
1508.5400, -59.115
1508.5600, -59.090
1508.5800, -59.097
1508.6000, -59.078
1508.6200, -59.063
1508.6400, -59.070
1508.6600, -59.048
1508.6800, -59.035
1508.7000, -59.051
1508.7200, -59.026
1508.7400, -59.024
1508.7600, -59.008
1508.7800, -58.994
1508.8000, -58.995
1508.8200, -59.006
1508.8400, -58.996
1508.8600, -58.967
1508.8800, -58.956
1508.9000, -58.958
1508.9200, -58.948
1508.9400, -58.932
1508.9600, -58.914
1508.9800, -58.926
1509.0000, -58.913
1509.0200, -58.907
1509.0400, -58.889
1509.0600, -58.887
1509.0800, -58.883
1509.1000, -58.876
1509.1200, -58.889
1509.1400, -58.870
1509.1600, -58.870
1509.1800, -58.826
1509.2000, -58.833
1509.2200, -58.815
1509.2400, -58.793
1509.2600, -58.806
1509.2800, -58.814
1509.3000, -58.794
1509.3200, -58.756
1509.3400, -58.753
1509.3600, -58.752
1509.3800, -58.744
1509.4000, -58.730
1509.4200, -58.734
1509.4400, -58.723
1509.4600, -58.708
1509.4800, -58.692
1509.5000, -58.691
1509.5200, -58.683
1509.5400, -58.671
1509.5600, -58.674
1509.5800, -58.667
1509.6000, -58.648
1509.6200, -58.625
1509.6400, -58.631
1509.6600, -58.610
1509.6800, -58.607
1509.7000, -58.608
1509.7200, -58.578
1509.7400, -58.564
1509.7600, -58.569
1509.7800, -58.575
1509.8000, -58.543
1509.8200, -58.559
1509.8400, -58.538
1509.8600, -58.526
1509.8800, -58.541
1509.9000, -58.513
1509.9200, -58.492
1509.9400, -58.502
1509.9600, -58.486
1509.9800, -58.487
1510.0000, -58.473
1510.0200, -58.478
1510.0400, -58.450
1510.0600, -58.450
1510.0800, -58.414
1510.1000, -58.442
1510.1200, -58.411
1510.1400, -58.408
1510.1600, -58.396
1510.1800, -58.379
1510.2000, -58.372
1510.2200, -58.371
1510.2400, -58.345
1510.2600, -58.344
1510.2800, -58.339
1510.3000, -58.329
1510.3200, -58.285
1510.3400, -58.316
1510.3600, -58.300
1510.3800, -58.280
1510.4000, -58.251
1510.4200, -58.265
1510.4400, -58.234
1510.4600, -58.230
1510.4800, -58.221
1510.5000, -58.210
1510.5200, -58.206
1510.5400, -58.193
1510.5600, -58.176
1510.5800, -58.166
1510.6000, -58.157
1510.6200, -58.157
1510.6400, -58.140
1510.6600, -58.123
1510.6800, -58.117
1510.7000, -58.098
1510.7200, -58.094
1510.7400, -58.081
1510.7600, -58.065
1510.7800, -58.061
1510.8000, -58.062
1510.8200, -58.035
1510.8400, -58.035
1510.8600, -58.016
1510.8800, -58.009
1510.9000, -58.001
1510.9200, -58.008
1510.9400, -57.984
1510.9600, -57.971
1510.9800, -57.968
1511.0000, -57.946
1511.0200, -57.937
1511.0400, -57.945
1511.0600, -57.927
1511.0800, -57.933
1511.1000, -57.901
1511.1200, -57.876
1511.1400, -57.873
1511.1600, -57.870
1511.1800, -57.869
1511.2000, -57.847
1511.2200, -57.842
1511.2400, -57.819
1511.2600, -57.814
1511.2800, -57.804
1511.3000, -57.787
1511.3200, -57.806
1511.3400, -57.786
1511.3600, -57.748
1511.3800, -57.756
1511.4000, -57.716
1511.4200, -57.720
1511.4400, -57.709
1511.4600, -57.712
1511.4800, -57.686
1511.5000, -57.673
1511.5200, -57.671
1511.5400, -57.638
1511.5600, -57.659
1511.5800, -57.623
1511.6000, -57.621
1511.6200, -57.609
1511.6400, -57.584
1511.6600, -57.590
1511.6800, -57.577
1511.7000, -57.563
1511.7200, -57.564
1511.7400, -57.526
1511.7600, -57.545
1511.7800, -57.528
1511.8000, -57.506
1511.8200, -57.487
1511.8400, -57.481
1511.8600, -57.480
1511.8800, -57.468
1511.9000, -57.465
1511.9200, -57.447
1511.9400, -57.426
1511.9600, -57.426
1511.9800, -57.416
1512.0000, -57.419
1512.0200, -57.414
1512.0400, -57.377
1512.0600, -57.360
1512.0800, -57.354
1512.1000, -57.344
1512.1200, -57.330
1512.1400, -57.328
1512.1600, -57.306
1512.1800, -57.306
1512.2000, -57.286
1512.2200, -57.282
1512.2400, -57.254
1512.2600, -57.269
1512.2800, -57.248
1512.3000, -57.227
1512.3200, -57.230
1512.3400, -57.198
1512.3600, -57.188
1512.3800, -57.190
1512.4000, -57.180
1512.4200, -57.159
1512.4400, -57.171
1512.4600, -57.138
1512.4800, -57.140
1512.5000, -57.117
1512.5200, -57.099
1512.5400, -57.104
1512.5600, -57.091
1512.5800, -57.059
1512.6000, -57.042
1512.6200, -57.060
1512.6400, -57.038
1512.6600, -57.030
1512.6800, -57.016
1512.7000, -57.003
1512.7200, -56.993
1512.7400, -56.986
1512.7600, -56.963
1512.7800, -56.956
1512.8000, -56.954
1512.8200, -56.938
1512.8400, -56.928
1512.8600, -56.919
1512.8800, -56.917
1512.9000, -56.888
1512.9200, -56.878
1512.9400, -56.882
1512.9600, -56.878
1512.9800, -56.852
1513.0000, -56.840
1513.0200, -56.808
1513.0400, -56.796
1513.0600, -56.788
1513.0800, -56.785
1513.1000, -56.779
1513.1200, -56.760
1513.1400, -56.755
1513.1600, -56.747
1513.1800, -56.725
1513.2000, -56.716
1513.2200, -56.712
1513.2400, -56.697
1513.2600, -56.690
1513.2800, -56.674
1513.3000, -56.651
1513.3200, -56.633
1513.3400, -56.639
1513.3600, -56.619
1513.3800, -56.605
1513.4000, -56.582
1513.4200, -56.589
1513.4400, -56.551
1513.4600, -56.577
1513.4800, -56.541
1513.5000, -56.544
1513.5200, -56.511
1513.5400, -56.504
1513.5600, -56.507
1513.5800, -56.476
1513.6000, -56.488
1513.6200, -56.464
1513.6400, -56.432
1513.6600, -56.450
1513.6800, -56.410
1513.7000, -56.393
1513.7200, -56.398
1513.7400, -56.401
1513.7600, -56.383
1513.7800, -56.370
1513.8000, -56.356
1513.8200, -56.350
1513.8400, -56.321
1513.8600, -56.311
1513.8800, -56.322
1513.9000, -56.306
1513.9200, -56.291
1513.9400, -56.274
1513.9600, -56.251
1513.9800, -56.229
1514.0000, -56.217
1514.0200, -56.205
1514.0400, -56.219
1514.0600, -56.186
1514.0800, -56.173
1514.1000, -56.165
1514.1200, -56.157
1514.1400, -56.146
1514.1600, -56.135
1514.1800, -56.120
1514.2000, -56.092
1514.2200, -56.081
1514.2400, -56.064
1514.2600, -56.057
1514.2800, -56.039
1514.3000, -56.031
1514.3200, -56.018
1514.3400, -56.010
1514.3600, -55.987
1514.3800, -55.976
1514.4000, -55.974
1514.4200, -55.954
1514.4400, -55.940
1514.4600, -55.931
1514.4800, -55.902
1514.5000, -55.892
1514.5200, -55.896
1514.5400, -55.872
1514.5600, -55.868
1514.5800, -55.848
1514.6000, -55.834
1514.6200, -55.825
1514.6400, -55.807
1514.6600, -55.788
1514.6800, -55.786
1514.7000, -55.789
1514.7200, -55.768
1514.7400, -55.736
1514.7600, -55.742
1514.7800, -55.716
1514.8000, -55.706
1514.8200, -55.695
1514.8400, -55.710
1514.8600, -55.676
1514.8800, -55.655
1514.9000, -55.640
1514.9200, -55.623
1514.9400, -55.596
1514.9600, -55.598
1514.9800, -55.578
1515.0000, -55.571
1515.0200, -55.560
1515.0400, -55.549
1515.0600, -55.539
1515.0800, -55.507
1515.1000, -55.504
1515.1200, -55.485
1515.1400, -55.470
1515.1600, -55.453
1515.1800, -55.439
1515.2000, -55.415
1515.2200, -55.409
1515.2400, -55.397
1515.2600, -55.382
1515.2800, -55.368
1515.3000, -55.355
1515.3200, -55.341
1515.3400, -55.318
1515.3600, -55.313
1515.3800, -55.299
1515.4000, -55.283
1515.4200, -55.250
1515.4400, -55.235
1515.4600, -55.245
1515.4800, -55.218
1515.5000, -55.204
1515.5200, -55.201
1515.5400, -55.180
1515.5600, -55.163
1515.5800, -55.152
1515.6000, -55.135
1515.6200, -55.122
1515.6400, -55.119
1515.6600, -55.109
1515.6800, -55.092
1515.7000, -55.074
1515.7200, -55.051
1515.7400, -55.039
1515.7600, -55.028
1515.7800, -55.020
1515.8000, -55.015
1515.8200, -54.983
1515.8400, -54.966
1515.8600, -54.956
1515.8800, -54.936
1515.9000, -54.916
1515.9200, -54.912
1515.9400, -54.898
1515.9600, -54.878
1515.9800, -54.872
1516.0000, -54.850
1516.0200, -54.826
1516.0400, -54.817
1516.0600, -54.804
1516.0800, -54.781
1516.1000, -54.769
1516.1200, -54.749
1516.1400, -54.718
1516.1600, -54.716
1516.1800, -54.702
1516.2000, -54.686
1516.2200, -54.673
1516.2400, -54.654
1516.2600, -54.640
1516.2800, -54.631
1516.3000, -54.606
1516.3200, -54.592
1516.3400, -54.589
1516.3600, -54.548
1516.3800, -54.521
1516.4000, -54.519
1516.4200, -54.513
1516.4400, -54.497
1516.4600, -54.494
1516.4800, -54.464
1516.5000, -54.444
1516.5200, -54.433
1516.5400, -54.405
1516.5600, -54.393
1516.5800, -54.395
1516.6000, -54.390
1516.6200, -54.347
1516.6400, -54.336
1516.6600, -54.328
1516.6800, -54.291
1516.7000, -54.278
1516.7200, -54.288
1516.7400, -54.277
1516.7600, -54.252
1516.7800, -54.214
1516.8000, -54.200
1516.8200, -54.176
1516.8400, -54.167
1516.8600, -54.150
1516.8800, -54.140
1516.9000, -54.109
1516.9200, -54.087
1516.9400, -54.094
1516.9600, -54.070
1516.9800, -54.024
1517.0000, -54.036
1517.0200, -54.012
1517.0400, -53.989
1517.0600, -53.961
1517.0800, -53.939
1517.1000, -53.931
1517.1200, -53.905
1517.1400, -53.890
1517.1600, -53.874
1517.1800, -53.863
1517.2000, -53.825
1517.2200, -53.826
1517.2400, -53.815
1517.2600, -53.783
1517.2800, -53.788
1517.3000, -53.741
1517.3200, -53.708
1517.3400, -53.714
1517.3600, -53.697
1517.3800, -53.674
1517.4000, -53.656
1517.4200, -53.631
1517.4400, -53.620
1517.4600, -53.598
1517.4800, -53.571
1517.5000, -53.557
1517.5200, -53.555
1517.5400, -53.526
1517.5600, -53.519
1517.5800, -53.493
1517.6000, -53.482
1517.6200, -53.457
1517.6400, -53.424
1517.6600, -53.428
1517.6800, -53.423
1517.7000, -53.386
1517.7200, -53.346
1517.7400, -53.324
1517.7600, -53.315
1517.7800, -53.290
1517.8000, -53.281
1517.8200, -53.263
1517.8400, -53.238
1517.8600, -53.211
1517.8800, -53.211
1517.9000, -53.186
1517.9200, -53.153
1517.9400, -53.139
1517.9600, -53.122
1517.9800, -53.098
1518.0000, -53.063
1518.0200, -53.042
1518.0400, -53.028
1518.0600, -53.008
1518.0800, -52.989
1518.1000, -52.966
1518.1200, -52.945
1518.1400, -52.922
1518.1600, -52.890
1518.1800, -52.891
1518.2000, -52.865
1518.2200, -52.848
1518.2400, -52.799
1518.2600, -52.768
1518.2800, -52.769
1518.3000, -52.756
1518.3200, -52.743
1518.3400, -52.718
1518.3600, -52.693
1518.3800, -52.676
1518.4000, -52.651
1518.4200, -52.635
1518.4400, -52.608
1518.4600, -52.600
1518.4800, -52.564
1518.5000, -52.546
1518.5200, -52.525
1518.5400, -52.501
1518.5600, -52.471
1518.5800, -52.453
1518.6000, -52.441
1518.6200, -52.425
1518.6400, -52.393
1518.6600, -52.351
1518.6800, -52.341
1518.7000, -52.314
1518.7200, -52.288
1518.7400, -52.278
1518.7600, -52.261
1518.7800, -52.232
1518.8000, -52.202
1518.8200, -52.200
1518.8400, -52.170
1518.8600, -52.131
1518.8800, -52.119
1518.9000, -52.106
1518.9200, -52.068
1518.9400, -52.040
1518.9600, -52.014
1518.9800, -51.992
1519.0000, -51.976
1519.0200, -51.947
1519.0400, -51.926
1519.0600, -51.904
1519.0800, -51.865
1519.1000, -51.838
1519.1200, -51.838
1519.1400, -51.789
1519.1600, -51.771
1519.1800, -51.743
1519.2000, -51.704
1519.2200, -51.702
1519.2400, -51.668
1519.2600, -51.648
1519.2800, -51.618
1519.3000, -51.594
1519.3200, -51.564
1519.3400, -51.546
1519.3600, -51.511
1519.3800, -51.495
1519.4000, -51.468
1519.4200, -51.446
1519.4400, -51.424
1519.4600, -51.395
1519.4800, -51.366
1519.5000, -51.341
1519.5200, -51.324
1519.5400, -51.296
1519.5600, -51.269
1519.5800, -51.241
1519.6000, -51.207
1519.6200, -51.184
1519.6400, -51.162
1519.6600, -51.113
1519.6800, -51.098
1519.7000, -51.084
1519.7200, -51.051
1519.7400, -51.019
1519.7600, -51.002
1519.7800, -50.972
1519.8000, -50.937
1519.8200, -50.914
1519.8400, -50.887
1519.8600, -50.856
1519.8800, -50.824
1519.9000, -50.789
1519.9200, -50.751
1519.9400, -50.733
1519.9600, -50.708
1519.9800, -50.684
1520.0000, -50.652
1520.0200, -50.622
1520.0400, -50.586
1520.0600, -50.551
1520.0800, -50.525
1520.1000, -50.493
1520.1200, -50.451
1520.1400, -50.414
1520.1600, -50.399
1520.1800, -50.380
1520.2000, -50.351
1520.2200, -50.328
1520.2400, -50.290
1520.2600, -50.261
1520.2800, -50.230
1520.3000, -50.185
1520.3200, -50.170
1520.3400, -50.142
1520.3600, -50.117
1520.3800, -50.087
1520.4000, -50.056
1520.4200, -50.015
1520.4400, -49.992
1520.4600, -49.967
1520.4800, -49.920
1520.5000, -49.890
1520.5200, -49.861
1520.5400, -49.829
1520.5600, -49.808
1520.5800, -49.772
1520.6000, -49.720
1520.6200, -49.696
