70BCSV 	
// AQ6370B OPTICAL SPECTRUM ANALYZER //                 
25
"CTRWL",1550.000000
"SPAN", 100.000000
"START WL",1500.000000
"STOP WL",1600.000000
"WLFREQ", 0
"REFL",-28.8
"LSCL", 5.0
"RESLN",0.100
"AVG",   1
"SMPLAUTO",      0
"SMPL",       5001
"SMPLINTVL",0.0200
"HIGH1"
"MEAS"
"LSUNT",0
"NMSKH","OFF"
"RESCOR",0
"RESPARM", 9050
"FREQPARM", 9050






"[TRACE DATA]"
1500.0000, -63.179
1500.0200, -63.235
1500.0400, -63.107
1500.0600, -63.175
1500.0800, -63.140
1500.1000, -63.194
1500.1200, -63.075
1500.1400, -63.164
1500.1600, -63.141
1500.1800, -63.100
1500.2000, -63.160
1500.2200, -63.078
1500.2400, -63.134
1500.2600, -63.069
1500.2800, -63.113
1500.3000, -63.075
1500.3200, -63.067
1500.3400, -63.040
1500.3600, -63.081
1500.3800, -63.056
1500.4000, -63.035
1500.4200, -63.026
1500.4400, -63.076
1500.4600, -63.079
1500.4800, -63.041
1500.5000, -63.017
1500.5200, -63.011
1500.5400, -63.007
1500.5600, -62.985
1500.5800, -63.031
1500.6000, -63.012
1500.6200, -62.995
1500.6400, -62.997
1500.6600, -63.007
1500.6800, -62.982
1500.7000, -63.034
1500.7200, -62.961
1500.7400, -63.024
1500.7600, -62.952
1500.7800, -62.976
1500.8000, -62.958
1500.8200, -62.971
1500.8400, -62.978
1500.8600, -62.964
1500.8800, -62.963
1500.9000, -62.959
1500.9200, -62.927
1500.9400, -62.939
1500.9600, -62.883
1500.9800, -62.932
1501.0000, -62.913
1501.0200, -62.930
1501.0400, -62.916
1501.0600, -62.866
1501.0800, -62.880
1501.1000, -62.887
1501.1200, -62.868
1501.1400, -62.866
1501.1600, -62.858
1501.1800, -62.833
1501.2000, -62.873
1501.2200, -62.851
1501.2400, -62.868
1501.2600, -62.831
1501.2800, -62.788
1501.3000, -62.825
1501.3200, -62.816
1501.3400, -62.836
1501.3600, -62.810
1501.3800, -62.813
1501.4000, -62.764
1501.4200, -62.818
1501.4400, -62.739
1501.4600, -62.843
1501.4800, -62.729
1501.5000, -62.755
1501.5200, -62.787
1501.5400, -62.756
1501.5600, -62.754
1501.5800, -62.744
1501.6000, -62.752
1501.6200, -62.764
1501.6400, -62.720
1501.6600, -62.757
1501.6800, -62.694
1501.7000, -62.736
1501.7200, -62.768
1501.7400, -62.721
1501.7600, -62.694
1501.7800, -62.713
1501.8000, -62.733
1501.8200, -62.704
1501.8400, -62.660
1501.8600, -62.745
1501.8800, -62.662
1501.9000, -62.730
1501.9200, -62.657
1501.9400, -62.661
1501.9600, -62.677
1501.9800, -62.655
1502.0000, -62.663
1502.0200, -62.639
1502.0400, -62.647
1502.0600, -62.655
1502.0800, -62.579
1502.1000, -62.609
1502.1200, -62.609
1502.1400, -62.589
1502.1600, -62.599
1502.1800, -62.605
1502.2000, -62.585
1502.2200, -62.556
1502.2400, -62.537
1502.2600, -62.602
1502.2800, -62.512
1502.3000, -62.546
1502.3200, -62.549
1502.3400, -62.552
1502.3600, -62.522
1502.3800, -62.515
1502.4000, -62.509
1502.4200, -62.508
1502.4400, -62.493
1502.4600, -62.517
1502.4800, -62.480
1502.5000, -62.467
1502.5200, -62.517
1502.5400, -62.477
1502.5600, -62.492
1502.5800, -62.429
1502.6000, -62.439
1502.6200, -62.458
1502.6400, -62.446
1502.6600, -62.500
1502.6800, -62.439
1502.7000, -62.461
1502.7200, -62.440
1502.7400, -62.437
1502.7600, -62.401
1502.7800, -62.426
1502.8000, -62.383
1502.8200, -62.403
1502.8400, -62.413
1502.8600, -62.377
1502.8800, -62.387
1502.9000, -62.376
1502.9200, -62.371
1502.9400, -62.352
1502.9600, -62.379
1502.9800, -62.317
1503.0000, -62.368
1503.0200, -62.328
1503.0400, -62.312
1503.0600, -62.312
1503.0800, -62.307
1503.1000, -62.357
1503.1200, -62.249
1503.1400, -62.293
1503.1600, -62.290
1503.1800, -62.269
1503.2000, -62.284
1503.2200, -62.271
1503.2400, -62.242
1503.2600, -62.278
1503.2800, -62.267
1503.3000, -62.247
1503.3200, -62.237
1503.3400, -62.222
1503.3600, -62.222
1503.3800, -62.203
1503.4000, -62.177
1503.4200, -62.225
1503.4400, -62.212
1503.4600, -62.195
1503.4800, -62.212
1503.5000, -62.221
1503.5200, -62.189
1503.5400, -62.167
1503.5600, -62.175
1503.5800, -62.144
1503.6000, -62.134
1503.6200, -62.161
1503.6400, -62.151
1503.6600, -62.154
1503.6800, -62.103
1503.7000, -62.124
1503.7200, -62.162
1503.7400, -62.106
1503.7600, -62.110
1503.7800, -62.093
1503.8000, -62.099
1503.8200, -62.112
1503.8400, -62.076
1503.8600, -62.080
1503.8800, -62.095
1503.9000, -62.049
1503.9200, -62.062
1503.9400, -62.050
1503.9600, -62.075
1503.9800, -62.028
1504.0000, -62.040
1504.0200, -62.048
1504.0400, -62.031
1504.0600, -62.007
1504.0800, -62.008
1504.1000, -61.993
1504.1200, -61.967
1504.1400, -61.974
1504.1600, -62.000
1504.1800, -61.916
1504.2000, -61.967
1504.2200, -61.923
1504.2400, -61.957
1504.2600, -61.974
1504.2800, -61.954
1504.3000, -61.915
1504.3200, -61.904
1504.3400, -61.864
1504.3600, -61.884
1504.3800, -61.921
1504.4000, -61.860
1504.4200, -61.899
1504.4400, -61.893
1504.4600, -61.865
1504.4800, -61.900
1504.5000, -61.871
1504.5200, -61.835
1504.5400, -61.813
1504.5600, -61.822
1504.5800, -61.854
1504.6000, -61.860
1504.6200, -61.807
1504.6400, -61.796
1504.6600, -61.830
1504.6800, -61.806
1504.7000, -61.847
1504.7200, -61.799
1504.7400, -61.778
1504.7600, -61.776
1504.7800, -61.813
1504.8000, -61.769
1504.8200, -61.762
1504.8400, -61.733
1504.8600, -61.731
1504.8800, -61.721
1504.9000, -61.722
1504.9200, -61.732
1504.9400, -61.746
1504.9600, -61.667
1504.9800, -61.673
1505.0000, -61.682
1505.0200, -61.674
1505.0400, -61.666
1505.0600, -61.670
1505.0800, -61.659
1505.1000, -61.658
1505.1200, -61.667
1505.1400, -61.628
1505.1600, -61.632
1505.1800, -61.626
1505.2000, -61.619
1505.2200, -61.579
1505.2400, -61.617
1505.2600, -61.572
1505.2800, -61.608
1505.3000, -61.551
1505.3200, -61.524
1505.3400, -61.603
1505.3600, -61.531
1505.3800, -61.574
1505.4000, -61.528
1505.4200, -61.540
1505.4400, -61.495
1505.4600, -61.503
1505.4800, -61.509
1505.5000, -61.522
1505.5200, -61.519
1505.5400, -61.510
1505.5600, -61.512
1505.5800, -61.471
1505.6000, -61.492
1505.6200, -61.478
1505.6400, -61.474
1505.6600, -61.478
1505.6800, -61.481
1505.7000, -61.471
1505.7200, -61.428
1505.7400, -61.437
1505.7600, -61.408
1505.7800, -61.430
1505.8000, -61.409
1505.8200, -61.393
1505.8400, -61.400
1505.8600, -61.453
1505.8800, -61.394
1505.9000, -61.368
1505.9200, -61.375
1505.9400, -61.335
1505.9600, -61.328
1505.9800, -61.330
1506.0000, -61.346
1506.0200, -61.334
1506.0400, -61.323
1506.0600, -61.280
1506.0800, -61.302
1506.1000, -61.297
1506.1200, -61.256
1506.1400, -61.280
1506.1600, -61.294
1506.1800, -61.266
1506.2000, -61.253
1506.2200, -61.210
1506.2400, -61.248
1506.2600, -61.223
1506.2800, -61.189
1506.3000, -61.202
1506.3200, -61.232
1506.3400, -61.190
1506.3600, -61.208
1506.3800, -61.202
1506.4000, -61.209
1506.4200, -61.151
1506.4400, -61.181
1506.4600, -61.166
1506.4800, -61.187
1506.5000, -61.158
1506.5200, -61.154
1506.5400, -61.156
1506.5600, -61.147
1506.5800, -61.153
1506.6000, -61.157
1506.6200, -61.105
1506.6400, -61.118
1506.6600, -61.058
1506.6800, -61.112
1506.7000, -61.096
1506.7200, -61.075
1506.7400, -61.066
1506.7600, -61.051
1506.7800, -61.072
1506.8000, -61.058
1506.8200, -61.041
1506.8400, -61.063
1506.8600, -61.044
1506.8800, -61.030
1506.9000, -61.009
1506.9200, -60.984
1506.9400, -61.017
1506.9600, -60.982
1506.9800, -60.932
1507.0000, -60.996
1507.0200, -60.934
1507.0400, -60.963
1507.0600, -60.948
1507.0800, -60.936
1507.1000, -60.936
1507.1200, -60.950
1507.1400, -60.922
1507.1600, -60.897
1507.1800, -60.904
1507.2000, -60.900
1507.2200, -60.902
1507.2400, -60.850
1507.2600, -60.906
1507.2800, -60.866
1507.3000, -60.885
1507.3200, -60.875
1507.3400, -60.838
1507.3600, -60.836
1507.3800, -60.863
1507.4000, -60.806
1507.4200, -60.856
1507.4400, -60.789
1507.4600, -60.848
1507.4800, -60.806
1507.5000, -60.799
1507.5200, -60.806
1507.5400, -60.796
1507.5600, -60.773
1507.5800, -60.760
1507.6000, -60.770
1507.6200, -60.783
1507.6400, -60.726
1507.6600, -60.736
1507.6800, -60.728
1507.7000, -60.714
1507.7200, -60.717
1507.7400, -60.711
1507.7600, -60.702
1507.7800, -60.684
1507.8000, -60.688
1507.8200, -60.687
1507.8400, -60.639
1507.8600, -60.670
1507.8800, -60.629
1507.9000, -60.630
1507.9200, -60.644
1507.9400, -60.618
1507.9600, -60.581
1507.9800, -60.607
1508.0000, -60.585
1508.0200, -60.601
1508.0400, -60.598
1508.0600, -60.567
1508.0800, -60.585
1508.1000, -60.567
1508.1200, -60.551
1508.1400, -60.503
1508.1600, -60.536
1508.1800, -60.498
1508.2000, -60.528
1508.2200, -60.498
1508.2400, -60.529
1508.2600, -60.503
1508.2800, -60.503
1508.3000, -60.505
1508.3200, -60.483
1508.3400, -60.487
1508.3600, -60.468
1508.3800, -60.472
1508.4000, -60.481
1508.4200, -60.431
1508.4400, -60.437
1508.4600, -60.453
1508.4800, -60.429
1508.5000, -60.431
1508.5200, -60.437
1508.5400, -60.426
1508.5600, -60.436
1508.5800, -60.396
1508.6000, -60.387
1508.6200, -60.368
1508.6400, -60.351
1508.6600, -60.363
1508.6800, -60.368
1508.7000, -60.341
1508.7200, -60.330
1508.7400, -60.341
1508.7600, -60.309
1508.7800, -60.336
1508.8000, -60.298
1508.8200, -60.305
1508.8400, -60.298
1508.8600, -60.273
1508.8800, -60.271
1508.9000, -60.250
1508.9200, -60.260
1508.9400, -60.211
1508.9600, -60.242
1508.9800, -60.225
1509.0000, -60.194
1509.0200, -60.228
1509.0400, -60.174
1509.0600, -60.189
1509.0800, -60.200
1509.1000, -60.165
1509.1200, -60.180
1509.1400, -60.139
1509.1600, -60.160
1509.1800, -60.147
1509.2000, -60.152
1509.2200, -60.146
1509.2400, -60.110
1509.2600, -60.098
1509.2800, -60.103
1509.3000, -60.118
1509.3200, -60.081
1509.3400, -60.128
1509.3600, -60.055
1509.3800, -60.086
1509.4000, -60.062
1509.4200, -60.044
1509.4400, -60.063
1509.4600, -60.050
1509.4800, -60.059
1509.5000, -60.044
1509.5200, -60.002
1509.5400, -60.025
1509.5600, -60.015
1509.5800, -60.012
1509.6000, -59.977
1509.6200, -59.947
1509.6400, -59.944
1509.6600, -59.975
1509.6800, -59.952
1509.7000, -59.943
1509.7200, -59.931
1509.7400, -59.949
1509.7600, -59.913
1509.7800, -59.897
1509.8000, -59.894
1509.8200, -59.888
1509.8400, -59.877
1509.8600, -59.834
1509.8800, -59.840
1509.9000, -59.850
1509.9200, -59.837
1509.9400, -59.843
1509.9600, -59.824
1509.9800, -59.815
1510.0000, -59.808
1510.0200, -59.793
1510.0400, -59.795
1510.0600, -59.766
1510.0800, -59.770
1510.1000, -59.744
1510.1200, -59.779
1510.1400, -59.755
1510.1600, -59.732
1510.1800, -59.739
1510.2000, -59.734
1510.2200, -59.709
1510.2400, -59.695
1510.2600, -59.706
1510.2800, -59.690
1510.3000, -59.679
1510.3200, -59.670
1510.3400, -59.661
1510.3600, -59.642
1510.3800, -59.639
1510.4000, -59.642
1510.4200, -59.623
1510.4400, -59.628
1510.4600, -59.583
1510.4800, -59.596
1510.5000, -59.600
1510.5200, -59.555
1510.5400, -59.575
1510.5600, -59.552
1510.5800, -59.540
1510.6000, -59.531
1510.6200, -59.542
1510.6400, -59.517
1510.6600, -59.509
1510.6800, -59.520
1510.7000, -59.492
1510.7200, -59.441
1510.7400, -59.471
1510.7600, -59.439
1510.7800, -59.453
1510.8000, -59.425
1510.8200, -59.395
1510.8400, -59.403
1510.8600, -59.388
1510.8800, -59.387
1510.9000, -59.386
1510.9200, -59.367
1510.9400, -59.350
1510.9600, -59.352
1510.9800, -59.348
1511.0000, -59.331
1511.0200, -59.339
1511.0400, -59.291
1511.0600, -59.286
1511.0800, -59.289
1511.1000, -59.284
1511.1200, -59.264
1511.1400, -59.260
1511.1600, -59.258
1511.1800, -59.238
1511.2000, -59.236
1511.2200, -59.241
1511.2400, -59.227
1511.2600, -59.210
1511.2800, -59.210
1511.3000, -59.189
1511.3200, -59.192
1511.3400, -59.162
1511.3600, -59.180
1511.3800, -59.173
1511.4000, -59.134
1511.4200, -59.132
1511.4400, -59.116
1511.4600, -59.113
1511.4800, -59.078
1511.5000, -59.105
1511.5200, -59.037
1511.5400, -59.079
1511.5600, -59.041
1511.5800, -59.041
1511.6000, -59.031
1511.6200, -59.039
1511.6400, -59.016
1511.6600, -58.999
1511.6800, -58.999
1511.7000, -58.952
1511.7200, -58.980
1511.7400, -58.940
1511.7600, -58.929
1511.7800, -58.921
1511.8000, -58.928
1511.8200, -58.907
1511.8400, -58.895
1511.8600, -58.882
1511.8800, -58.859
1511.9000, -58.849
1511.9200, -58.831
1511.9400, -58.848
1511.9600, -58.833
1511.9800, -58.800
1512.0000, -58.808
1512.0200, -58.807
1512.0400, -58.812
1512.0600, -58.801
1512.0800, -58.796
1512.1000, -58.767
1512.1200, -58.746
1512.1400, -58.738
1512.1600, -58.749
1512.1800, -58.748
1512.2000, -58.713
1512.2200, -58.724
1512.2400, -58.719
1512.2600, -58.696
1512.2800, -58.681
1512.3000, -58.666
1512.3200, -58.663
1512.3400, -58.652
1512.3600, -58.646
1512.3800, -58.644
1512.4000, -58.627
1512.4200, -58.614
1512.4400, -58.614
1512.4600, -58.576
1512.4800, -58.589
1512.5000, -58.574
1512.5200, -58.548
1512.5400, -58.539
1512.5600, -58.540
1512.5800, -58.542
1512.6000, -58.505
1512.6200, -58.515
1512.6400, -58.477
1512.6600, -58.462
1512.6800, -58.475
1512.7000, -58.444
1512.7200, -58.425
1512.7400, -58.431
1512.7600, -58.430
1512.7800, -58.396
1512.8000, -58.391
1512.8200, -58.376
1512.8400, -58.349
1512.8600, -58.359
1512.8800, -58.356
1512.9000, -58.355
1512.9200, -58.325
1512.9400, -58.319
1512.9600, -58.310
1512.9800, -58.303
1513.0000, -58.312
1513.0200, -58.296
1513.0400, -58.283
1513.0600, -58.247
1513.0800, -58.265
1513.1000, -58.244
1513.1200, -58.249
1513.1400, -58.219
1513.1600, -58.214
1513.1800, -58.210
1513.2000, -58.204
1513.2200, -58.201
1513.2400, -58.180
1513.2600, -58.157
1513.2800, -58.160
1513.3000, -58.141
1513.3200, -58.144
1513.3400, -58.094
1513.3600, -58.117
1513.3800, -58.103
1513.4000, -58.079
1513.4200, -58.065
1513.4400, -58.060
1513.4600, -58.043
1513.4800, -58.039
1513.5000, -58.013
1513.5200, -58.018
1513.5400, -57.996
1513.5600, -57.984
1513.5800, -57.956
1513.6000, -57.957
1513.6200, -57.957
1513.6400, -57.922
1513.6600, -57.918
1513.6800, -57.909
1513.7000, -57.895
1513.7200, -57.880
1513.7400, -57.872
1513.7600, -57.859
1513.7800, -57.858
1513.8000, -57.826
1513.8200, -57.835
1513.8400, -57.813
1513.8600, -57.808
1513.8800, -57.783
1513.9000, -57.782
1513.9200, -57.775
1513.9400, -57.787
1513.9600, -57.761
1513.9800, -57.741
1514.0000, -57.732
1514.0200, -57.725
1514.0400, -57.725
1514.0600, -57.712
1514.0800, -57.687
1514.1000, -57.679
1514.1200, -57.673
1514.1400, -57.659
1514.1600, -57.643
1514.1800, -57.649
1514.2000, -57.639
1514.2200, -57.624
1514.2400, -57.599
1514.2600, -57.597
1514.2800, -57.582
1514.3000, -57.560
1514.3200, -57.535
1514.3400, -57.542
1514.3600, -57.510
1514.3800, -57.507
1514.4000, -57.498
1514.4200, -57.493
1514.4400, -57.471
1514.4600, -57.475
1514.4800, -57.447
1514.5000, -57.433
1514.5200, -57.412
1514.5400, -57.396
1514.5600, -57.401
1514.5800, -57.375
1514.6000, -57.355
1514.6200, -57.349
1514.6400, -57.350
1514.6600, -57.319
1514.6800, -57.312
1514.7000, -57.298
1514.7200, -57.284
1514.7400, -57.272
1514.7600, -57.262
1514.7800, -57.231
1514.8000, -57.235
1514.8200, -57.233
1514.8400, -57.215
1514.8600, -57.217
1514.8800, -57.216
1514.9000, -57.188
1514.9200, -57.174
1514.9400, -57.164
1514.9600, -57.142
1514.9800, -57.138
1515.0000, -57.143
1515.0200, -57.128
1515.0400, -57.106
1515.0600, -57.090
1515.0800, -57.072
1515.1000, -57.082
1515.1200, -57.061
1515.1400, -57.055
1515.1600, -57.051
1515.1800, -57.025
1515.2000, -57.004
1515.2200, -56.979
1515.2400, -56.980
1515.2600, -56.959
1515.2800, -56.941
1515.3000, -56.927
1515.3200, -56.915
1515.3400, -56.900
1515.3600, -56.902
1515.3800, -56.880
1515.4000, -56.868
1515.4200, -56.866
1515.4400, -56.817
1515.4600, -56.824
1515.4800, -56.784
1515.5000, -56.796
1515.5200, -56.771
1515.5400, -56.741
1515.5600, -56.739
1515.5800, -56.736
1515.6000, -56.703
1515.6200, -56.708
1515.6400, -56.701
1515.6600, -56.686
1515.6800, -56.655
1515.7000, -56.647
1515.7200, -56.646
1515.7400, -56.609
1515.7600, -56.601
1515.7800, -56.589
1515.8000, -56.589
1515.8200, -56.594
1515.8400, -56.557
1515.8600, -56.557
1515.8800, -56.538
1515.9000, -56.521
1515.9200, -56.503
1515.9400, -56.490
1515.9600, -56.503
1515.9800, -56.482
1516.0000, -56.459
1516.0200, -56.437
1516.0400, -56.430
1516.0600, -56.426
1516.0800, -56.411
1516.1000, -56.401
1516.1200, -56.405
1516.1400, -56.355
1516.1600, -56.342
1516.1800, -56.320
1516.2000, -56.307
1516.2200, -56.282
1516.2400, -56.287
1516.2600, -56.257
1516.2800, -56.245
1516.3000, -56.241
1516.3200, -56.232
1516.3400, -56.212
1516.3600, -56.212
1516.3800, -56.173
1516.4000, -56.153
1516.4200, -56.133
1516.4400, -56.117
1516.4600, -56.111
1516.4800, -56.082
1516.5000, -56.057
1516.5200, -56.054
1516.5400, -56.047
1516.5600, -56.026
1516.5800, -56.026
1516.6000, -56.004
1516.6200, -55.981
1516.6400, -55.963
1516.6600, -55.949
1516.6800, -55.920
1516.7000, -55.914
1516.7200, -55.901
1516.7400, -55.881
1516.7600, -55.874
1516.7800, -55.868
1516.8000, -55.860
1516.8200, -55.826
1516.8400, -55.816
1516.8600, -55.810
1516.8800, -55.791
1516.9000, -55.784
1516.9200, -55.770
1516.9400, -55.761
1516.9600, -55.730
1516.9800, -55.727
1517.0000, -55.709
1517.0200, -55.687
1517.0400, -55.682
1517.0600, -55.684
1517.0800, -55.637
1517.1000, -55.606
1517.1200, -55.590
1517.1400, -55.576
1517.1600, -55.570
1517.1800, -55.537
1517.2000, -55.523
1517.2200, -55.498
1517.2400, -55.494
1517.2600, -55.477
1517.2800, -55.451
1517.3000, -55.468
1517.3200, -55.428
1517.3400, -55.403
1517.3600, -55.381
1517.3800, -55.348
1517.4000, -55.334
1517.4200, -55.306
1517.4400, -55.291
1517.4600, -55.293
1517.4800, -55.286
1517.5000, -55.248
1517.5200, -55.238
1517.5400, -55.220
1517.5600, -55.210
1517.5800, -55.194
1517.6000, -55.175
1517.6200, -55.143
1517.6400, -55.132
1517.6600, -55.110
1517.6800, -55.090
1517.7000, -55.099
1517.7200, -55.079
1517.7400, -55.042
1517.7600, -55.027
1517.7800, -55.018
1517.8000, -54.997
1517.8200, -54.970
1517.8400, -54.956
1517.8600, -54.956
1517.8800, -54.940
1517.9000, -54.929
1517.9200, -54.899
1517.9400, -54.887
1517.9600, -54.862
1517.9800, -54.834
1518.0000, -54.822
1518.0200, -54.790
1518.0400, -54.768
1518.0600, -54.755
1518.0800, -54.735
1518.1000, -54.717
1518.1200, -54.697
1518.1400, -54.683
1518.1600, -54.658
1518.1800, -54.650
1518.2000, -54.624
1518.2200, -54.602
1518.2400, -54.602
1518.2600, -54.562
1518.2800, -54.538
1518.3000, -54.517
1518.3200, -54.476
1518.3400, -54.475
1518.3600, -54.452
1518.3800, -54.419
1518.4000, -54.416
1518.4200, -54.385
1518.4400, -54.368
1518.4600, -54.359
1518.4800, -54.327
1518.5000, -54.309
1518.5200, -54.284
1518.5400, -54.268
1518.5600, -54.238
1518.5800, -54.214
1518.6000, -54.192
1518.6200, -54.175
1518.6400, -54.171
1518.6600, -54.164
1518.6800, -54.144
1518.7000, -54.101
1518.7200, -54.098
1518.7400, -54.061
1518.7600, -54.051
1518.7800, -54.031
1518.8000, -54.014
1518.8200, -54.004
1518.8400, -53.986
1518.8600, -53.974
1518.8800, -53.947
1518.9000, -53.904
1518.9200, -53.887
1518.9400, -53.891
1518.9600, -53.856
1518.9800, -53.810
1519.0000, -53.795
1519.0200, -53.766
1519.0400, -53.762
1519.0600, -53.736
1519.0800, -53.702
1519.1000, -53.683
1519.1200, -53.651
1519.1400, -53.639
1519.1600, -53.610
1519.1800, -53.610
1519.2000, -53.556
1519.2200, -53.526
1519.2400, -53.501
1519.2600, -53.482
1519.2800, -53.470
1519.3000, -53.447
1519.3200, -53.403
1519.3400, -53.378
1519.3600, -53.359
1519.3800, -53.331
1519.4000, -53.306
1519.4200, -53.280
1519.4400, -53.266
1519.4600, -53.227
1519.4800, -53.209
1519.5000, -53.179
1519.5200, -53.163
1519.5400, -53.155
1519.5600, -53.103
1519.5800, -53.084
1519.6000, -53.078
1519.6200, -53.052
1519.6400, -53.031
1519.6600, -52.992
1519.6800, -52.965
1519.7000, -52.950
1519.7200, -52.940
1519.7400, -52.929
1519.7600, -52.905
1519.7800, -52.869
1519.8000, -52.847
1519.8200, -52.837
1519.8400, -52.802
1519.8600, -52.789
1519.8800, -52.738
1519.9000, -52.701
1519.9200, -52.658
1519.9400, -52.638
1519.9600, -52.625
1519.9800, -52.576
1520.0000, -52.574
1520.0200, -52.543
1520.0400, -52.518
1520.0600, -52.501
1520.0800, -52.469
1520.1000, -52.441
1520.1200, -52.401
1520.1400, -52.362
1520.1600, -52.324
1520.1800, -52.294
1520.2000, -52.275
1520.2200, -52.257
1520.2400, -52.219
1520.2600, -52.196
1520.2800, -52.169
1520.3000, -52.143
1520.3200, -52.120
1520.3400, -52.090
1520.3600, -52.059
1520.3800, -52.037
1520.4000, -52.004
1520.4200, -51.971
1520.4400, -51.942
1520.4600, -51.913
1520.4800, -51.882
1520.5000, -51.845
1520.5200, -51.822
1520.5400, -51.805
1520.5600, -51.790
1520.5800, -51.744
1520.6000, -51.717
1520.6200, -51.679
