70BCSV 	
// AQ6370B OPTICAL SPECTRUM ANALYZER //                 
25
"CTRWL",1550.000000
"SPAN", 100.000000
"START WL",1500.000000
"STOP WL",1600.000000
"WLFREQ", 0
"REFL",-28.8
"LSCL", 5.0
"RESLN",0.100
"AVG",   1
"SMPLAUTO",      0
"SMPL",       5001
"SMPLINTVL",0.0200
"HIGH1"
"MEAS"
"LSUNT",0
"NMSKH","OFF"
"RESCOR",0
"RESPARM", 9050
"FREQPARM", 9050






"[TRACE DATA]"
1500.0000, -62.601
1500.0200, -62.625
1500.0400, -62.545
1500.0600, -62.588
1500.0800, -62.604
1500.1000, -62.582
1500.1200, -62.496
1500.1400, -62.540
1500.1600, -62.553
1500.1800, -62.519
1500.2000, -62.544
1500.2200, -62.535
1500.2400, -62.567
1500.2600, -62.492
1500.2800, -62.510
1500.3000, -62.494
1500.3200, -62.477
1500.3400, -62.501
1500.3600, -62.470
1500.3800, -62.480
1500.4000, -62.460
1500.4200, -62.470
1500.4400, -62.516
1500.4600, -62.423
1500.4800, -62.444
1500.5000, -62.400
1500.5200, -62.433
1500.5400, -62.436
1500.5600, -62.401
1500.5800, -62.425
1500.6000, -62.420
1500.6200, -62.396
1500.6400, -62.420
1500.6600, -62.382
1500.6800, -62.411
1500.7000, -62.390
1500.7200, -62.414
1500.7400, -62.397
1500.7600, -62.365
1500.7800, -62.351
1500.8000, -62.382
1500.8200, -62.391
1500.8400, -62.354
1500.8600, -62.399
1500.8800, -62.308
1500.9000, -62.323
1500.9200, -62.362
1500.9400, -62.366
1500.9600, -62.360
1500.9800, -62.308
1501.0000, -62.321
1501.0200, -62.344
1501.0400, -62.304
1501.0600, -62.290
1501.0800, -62.275
1501.1000, -62.275
1501.1200, -62.269
1501.1400, -62.267
1501.1600, -62.290
1501.1800, -62.275
1501.2000, -62.230
1501.2200, -62.239
1501.2400, -62.283
1501.2600, -62.216
1501.2800, -62.224
1501.3000, -62.251
1501.3200, -62.173
1501.3400, -62.208
1501.3600, -62.227
1501.3800, -62.207
1501.4000, -62.181
1501.4200, -62.181
1501.4400, -62.204
1501.4600, -62.184
1501.4800, -62.178
1501.5000, -62.147
1501.5200, -62.179
1501.5400, -62.151
1501.5600, -62.148
1501.5800, -62.157
1501.6000, -62.143
1501.6200, -62.139
1501.6400, -62.118
1501.6600, -62.137
1501.6800, -62.112
1501.7000, -62.099
1501.7200, -62.094
1501.7400, -62.129
1501.7600, -62.108
1501.7800, -62.109
1501.8000, -62.108
1501.8200, -62.091
1501.8400, -62.138
1501.8600, -62.112
1501.8800, -62.075
1501.9000, -62.090
1501.9200, -62.094
1501.9400, -62.050
1501.9600, -62.040
1501.9800, -62.062
1502.0000, -62.041
1502.0200, -62.036
1502.0400, -62.067
1502.0600, -62.016
1502.0800, -61.988
1502.1000, -62.016
1502.1200, -62.015
1502.1400, -61.982
1502.1600, -61.976
1502.1800, -61.947
1502.2000, -61.980
1502.2200, -61.979
1502.2400, -61.966
1502.2600, -61.943
1502.2800, -61.935
1502.3000, -61.926
1502.3200, -61.945
1502.3400, -61.914
1502.3600, -61.942
1502.3800, -61.913
1502.4000, -61.937
1502.4200, -61.888
1502.4400, -61.890
1502.4600, -61.910
1502.4800, -61.854
1502.5000, -61.884
1502.5200, -61.833
1502.5400, -61.877
1502.5600, -61.879
1502.5800, -61.861
1502.6000, -61.844
1502.6200, -61.856
1502.6400, -61.797
1502.6600, -61.787
1502.6800, -61.825
1502.7000, -61.840
1502.7200, -61.808
1502.7400, -61.826
1502.7600, -61.822
1502.7800, -61.835
1502.8000, -61.804
1502.8200, -61.808
1502.8400, -61.768
1502.8600, -61.822
1502.8800, -61.741
1502.9000, -61.766
1502.9200, -61.790
1502.9400, -61.778
1502.9600, -61.740
1502.9800, -61.751
1503.0000, -61.710
1503.0200, -61.703
1503.0400, -61.711
1503.0600, -61.691
1503.0800, -61.721
1503.1000, -61.663
1503.1200, -61.677
1503.1400, -61.667
1503.1600, -61.680
1503.1800, -61.683
1503.2000, -61.656
1503.2200, -61.704
1503.2400, -61.636
1503.2600, -61.635
1503.2800, -61.640
1503.3000, -61.613
1503.3200, -61.592
1503.3400, -61.607
1503.3600, -61.589
1503.3800, -61.599
1503.4000, -61.585
1503.4200, -61.592
1503.4400, -61.551
1503.4600, -61.597
1503.4800, -61.561
1503.5000, -61.538
1503.5200, -61.549
1503.5400, -61.494
1503.5600, -61.552
1503.5800, -61.528
1503.6000, -61.545
1503.6200, -61.561
1503.6400, -61.505
1503.6600, -61.515
1503.6800, -61.490
1503.7000, -61.544
1503.7200, -61.509
1503.7400, -61.472
1503.7600, -61.455
1503.7800, -61.481
1503.8000, -61.448
1503.8200, -61.491
1503.8400, -61.479
1503.8600, -61.462
1503.8800, -61.454
1503.9000, -61.459
1503.9200, -61.439
1503.9400, -61.440
1503.9600, -61.424
1503.9800, -61.413
1504.0000, -61.421
1504.0200, -61.385
1504.0400, -61.395
1504.0600, -61.407
1504.0800, -61.373
1504.1000, -61.348
1504.1200, -61.361
1504.1400, -61.334
1504.1600, -61.337
1504.1800, -61.344
1504.2000, -61.349
1504.2200, -61.336
1504.2400, -61.297
1504.2600, -61.309
1504.2800, -61.287
1504.3000, -61.283
1504.3200, -61.264
1504.3400, -61.254
1504.3600, -61.242
1504.3800, -61.278
1504.4000, -61.271
1504.4200, -61.250
1504.4400, -61.235
1504.4600, -61.222
1504.4800, -61.202
1504.5000, -61.249
1504.5200, -61.206
1504.5400, -61.231
1504.5600, -61.198
1504.5800, -61.178
1504.6000, -61.219
1504.6200, -61.192
1504.6400, -61.172
1504.6600, -61.194
1504.6800, -61.142
1504.7000, -61.165
1504.7200, -61.147
1504.7400, -61.141
1504.7600, -61.163
1504.7800, -61.180
1504.8000, -61.113
1504.8200, -61.144
1504.8400, -61.129
1504.8600, -61.114
1504.8800, -61.125
1504.9000, -61.092
1504.9200, -61.069
1504.9400, -61.078
1504.9600, -61.072
1504.9800, -61.046
1505.0000, -61.034
1505.0200, -61.059
1505.0400, -61.012
1505.0600, -61.035
1505.0800, -61.024
1505.1000, -61.002
1505.1200, -61.026
1505.1400, -61.001
1505.1600, -60.973
1505.1800, -60.962
1505.2000, -60.966
1505.2200, -60.954
1505.2400, -60.974
1505.2600, -60.928
1505.2800, -60.950
1505.3000, -60.901
1505.3200, -60.936
1505.3400, -60.889
1505.3600, -60.914
1505.3800, -60.912
1505.4000, -60.868
1505.4200, -60.887
1505.4400, -60.865
1505.4600, -60.918
1505.4800, -60.868
1505.5000, -60.834
1505.5200, -60.851
1505.5400, -60.831
1505.5600, -60.845
1505.5800, -60.855
1505.6000, -60.840
1505.6200, -60.818
1505.6400, -60.832
1505.6600, -60.776
1505.6800, -60.798
1505.7000, -60.814
1505.7200, -60.787
1505.7400, -60.812
1505.7600, -60.762
1505.7800, -60.779
1505.8000, -60.775
1505.8200, -60.762
1505.8400, -60.767
1505.8600, -60.732
1505.8800, -60.739
1505.9000, -60.720
1505.9200, -60.720
1505.9400, -60.680
1505.9600, -60.678
1505.9800, -60.695
1506.0000, -60.680
1506.0200, -60.667
1506.0400, -60.659
1506.0600, -60.683
1506.0800, -60.659
1506.1000, -60.630
1506.1200, -60.636
1506.1400, -60.630
1506.1600, -60.604
1506.1800, -60.596
1506.2000, -60.598
1506.2200, -60.601
1506.2400, -60.583
1506.2600, -60.585
1506.2800, -60.550
1506.3000, -60.548
1506.3200, -60.579
1506.3400, -60.531
1506.3600, -60.552
1506.3800, -60.544
1506.4000, -60.496
1506.4200, -60.535
1506.4400, -60.530
1506.4600, -60.503
1506.4800, -60.479
1506.5000, -60.496
1506.5200, -60.467
1506.5400, -60.490
1506.5600, -60.503
1506.5800, -60.474
1506.6000, -60.448
1506.6200, -60.450
1506.6400, -60.428
1506.6600, -60.469
1506.6800, -60.414
1506.7000, -60.452
1506.7200, -60.404
1506.7400, -60.418
1506.7600, -60.416
1506.7800, -60.393
1506.8000, -60.388
1506.8200, -60.389
1506.8400, -60.388
1506.8600, -60.359
1506.8800, -60.345
1506.9000, -60.341
1506.9200, -60.326
1506.9400, -60.341
1506.9600, -60.300
1506.9800, -60.332
1507.0000, -60.297
1507.0200, -60.295
1507.0400, -60.279
1507.0600, -60.281
1507.0800, -60.287
1507.1000, -60.267
1507.1200, -60.240
1507.1400, -60.273
1507.1600, -60.215
1507.1800, -60.233
1507.2000, -60.208
1507.2200, -60.220
1507.2400, -60.204
1507.2600, -60.196
1507.2800, -60.197
1507.3000, -60.196
1507.3200, -60.145
1507.3400, -60.194
1507.3600, -60.164
1507.3800, -60.139
1507.4000, -60.163
1507.4200, -60.151
1507.4400, -60.129
1507.4600, -60.113
1507.4800, -60.140
1507.5000, -60.118
1507.5200, -60.093
1507.5400, -60.114
1507.5600, -60.077
1507.5800, -60.098
1507.6000, -60.061
1507.6200, -60.059
1507.6400, -60.069
1507.6600, -60.048
1507.6800, -60.077
1507.7000, -60.027
1507.7200, -60.059
1507.7400, -60.034
1507.7600, -60.031
1507.7800, -60.009
1507.8000, -59.982
1507.8200, -59.986
1507.8400, -59.960
1507.8600, -59.974
1507.8800, -59.973
1507.9000, -59.942
1507.9200, -59.922
1507.9400, -59.957
1507.9600, -59.927
1507.9800, -59.909
1508.0000, -59.921
1508.0200, -59.881
1508.0400, -59.898
1508.0600, -59.885
1508.0800, -59.865
1508.1000, -59.852
1508.1200, -59.874
1508.1400, -59.858
1508.1600, -59.810
1508.1800, -59.830
1508.2000, -59.823
1508.2200, -59.833
1508.2400, -59.819
1508.2600, -59.795
1508.2800, -59.810
1508.3000, -59.818
1508.3200, -59.789
1508.3400, -59.795
1508.3600, -59.756
1508.3800, -59.759
1508.4000, -59.761
1508.4200, -59.762
1508.4400, -59.745
1508.4600, -59.721
1508.4800, -59.749
1508.5000, -59.698
1508.5200, -59.722
1508.5400, -59.690
1508.5600, -59.719
1508.5800, -59.674
1508.6000, -59.691
1508.6200, -59.664
1508.6400, -59.708
1508.6600, -59.644
1508.6800, -59.664
1508.7000, -59.634
1508.7200, -59.668
1508.7400, -59.601
1508.7600, -59.639
1508.7800, -59.608
1508.8000, -59.599
1508.8200, -59.600
1508.8400, -59.583
1508.8600, -59.568
1508.8800, -59.566
1508.9000, -59.568
1508.9200, -59.536
1508.9400, -59.527
1508.9600, -59.535
1508.9800, -59.516
1509.0000, -59.506
1509.0200, -59.501
1509.0400, -59.504
1509.0600, -59.467
1509.0800, -59.489
1509.1000, -59.463
1509.1200, -59.452
1509.1400, -59.435
1509.1600, -59.440
1509.1800, -59.415
1509.2000, -59.413
1509.2200, -59.422
1509.2400, -59.396
1509.2600, -59.422
1509.2800, -59.389
1509.3000, -59.371
1509.3200, -59.377
1509.3400, -59.358
1509.3600, -59.381
1509.3800, -59.338
1509.4000, -59.331
1509.4200, -59.333
1509.4400, -59.336
1509.4600, -59.304
1509.4800, -59.301
1509.5000, -59.298
1509.5200, -59.287
1509.5400, -59.284
1509.5600, -59.292
1509.5800, -59.300
1509.6000, -59.251
1509.6200, -59.259
1509.6400, -59.251
1509.6600, -59.230
1509.6800, -59.246
1509.7000, -59.230
1509.7200, -59.211
1509.7400, -59.205
1509.7600, -59.188
1509.7800, -59.172
1509.8000, -59.173
1509.8200, -59.136
1509.8400, -59.165
1509.8600, -59.131
1509.8800, -59.142
1509.9000, -59.147
1509.9200, -59.116
1509.9400, -59.109
1509.9600, -59.105
1509.9800, -59.097
1510.0000, -59.076
1510.0200, -59.074
1510.0400, -59.062
1510.0600, -59.051
1510.0800, -59.044
1510.1000, -59.045
1510.1200, -59.015
1510.1400, -58.992
1510.1600, -59.003
1510.1800, -58.992
1510.2000, -58.974
1510.2200, -58.982
1510.2400, -58.973
1510.2600, -58.969
1510.2800, -58.943
1510.3000, -58.950
1510.3200, -58.940
1510.3400, -58.933
1510.3600, -58.900
1510.3800, -58.922
1510.4000, -58.896
1510.4200, -58.875
1510.4400, -58.867
1510.4600, -58.864
1510.4800, -58.852
1510.5000, -58.841
1510.5200, -58.838
1510.5400, -58.835
1510.5600, -58.833
1510.5800, -58.792
1510.6000, -58.805
1510.6200, -58.800
1510.6400, -58.778
1510.6600, -58.771
1510.6800, -58.754
1510.7000, -58.738
1510.7200, -58.726
1510.7400, -58.722
1510.7600, -58.707
1510.7800, -58.691
1510.8000, -58.683
1510.8200, -58.689
1510.8400, -58.661
1510.8600, -58.667
1510.8800, -58.636
1510.9000, -58.629
1510.9200, -58.597
1510.9400, -58.608
1510.9600, -58.608
1510.9800, -58.599
1511.0000, -58.562
1511.0200, -58.558
1511.0400, -58.548
1511.0600, -58.549
1511.0800, -58.552
1511.1000, -58.519
1511.1200, -58.525
1511.1400, -58.491
1511.1600, -58.486
1511.1800, -58.516
1511.2000, -58.479
1511.2200, -58.458
1511.2400, -58.449
1511.2600, -58.461
1511.2800, -58.449
1511.3000, -58.430
1511.3200, -58.436
1511.3400, -58.425
1511.3600, -58.400
1511.3800, -58.388
1511.4000, -58.388
1511.4200, -58.360
1511.4400, -58.334
1511.4600, -58.344
1511.4800, -58.350
1511.5000, -58.336
1511.5200, -58.315
1511.5400, -58.304
1511.5600, -58.293
1511.5800, -58.282
1511.6000, -58.274
1511.6200, -58.259
1511.6400, -58.259
1511.6600, -58.225
1511.6800, -58.224
1511.7000, -58.210
1511.7200, -58.211
1511.7400, -58.199
1511.7600, -58.203
1511.7800, -58.166
1511.8000, -58.150
1511.8200, -58.133
1511.8400, -58.125
1511.8600, -58.120
1511.8800, -58.114
1511.9000, -58.093
1511.9200, -58.089
1511.9400, -58.066
1511.9600, -58.061
1511.9800, -58.062
1512.0000, -58.036
1512.0200, -58.031
1512.0400, -58.014
1512.0600, -58.018
1512.0800, -57.995
1512.1000, -57.987
1512.1200, -57.989
1512.1400, -57.974
1512.1600, -57.967
1512.1800, -57.948
1512.2000, -57.944
1512.2200, -57.935
1512.2400, -57.933
1512.2600, -57.922
1512.2800, -57.902
1512.3000, -57.900
1512.3200, -57.893
1512.3400, -57.867
1512.3600, -57.862
1512.3800, -57.855
1512.4000, -57.871
1512.4200, -57.842
1512.4400, -57.836
1512.4600, -57.816
1512.4800, -57.811
1512.5000, -57.804
1512.5200, -57.780
1512.5400, -57.765
1512.5600, -57.759
1512.5800, -57.736
1512.6000, -57.734
1512.6200, -57.710
1512.6400, -57.703
1512.6600, -57.691
1512.6800, -57.695
1512.7000, -57.668
1512.7200, -57.670
1512.7400, -57.662
1512.7600, -57.629
1512.7800, -57.614
1512.8000, -57.615
1512.8200, -57.611
1512.8400, -57.586
1512.8600, -57.572
1512.8800, -57.569
1512.9000, -57.545
1512.9200, -57.544
1512.9400, -57.531
1512.9600, -57.509
1512.9800, -57.508
1513.0000, -57.491
1513.0200, -57.482
1513.0400, -57.472
1513.0600, -57.476
1513.0800, -57.451
1513.1000, -57.441
1513.1200, -57.431
1513.1400, -57.421
1513.1600, -57.421
1513.1800, -57.395
1513.2000, -57.404
1513.2200, -57.396
1513.2400, -57.374
1513.2600, -57.364
1513.2800, -57.358
1513.3000, -57.352
1513.3200, -57.330
1513.3400, -57.325
1513.3600, -57.318
1513.3800, -57.288
1513.4000, -57.283
1513.4200, -57.284
1513.4400, -57.266
1513.4600, -57.249
1513.4800, -57.232
1513.5000, -57.231
1513.5200, -57.207
1513.5400, -57.193
1513.5600, -57.183
1513.5800, -57.172
1513.6000, -57.158
1513.6200, -57.144
1513.6400, -57.129
1513.6600, -57.121
1513.6800, -57.115
1513.7000, -57.090
1513.7200, -57.065
1513.7400, -57.070
1513.7600, -57.050
1513.7800, -57.046
1513.8000, -57.028
1513.8200, -57.021
1513.8400, -57.001
1513.8600, -56.970
1513.8800, -56.966
1513.9000, -56.958
1513.9200, -56.954
1513.9400, -56.943
1513.9600, -56.922
1513.9800, -56.921
1514.0000, -56.901
1514.0200, -56.917
1514.0400, -56.876
1514.0600, -56.873
1514.0800, -56.857
1514.1000, -56.847
1514.1200, -56.848
1514.1400, -56.839
1514.1600, -56.829
1514.1800, -56.807
1514.2000, -56.793
1514.2200, -56.793
1514.2400, -56.786
1514.2600, -56.759
1514.2800, -56.747
1514.3000, -56.729
1514.3200, -56.736
1514.3400, -56.712
1514.3600, -56.691
1514.3800, -56.690
1514.4000, -56.685
1514.4200, -56.668
1514.4400, -56.656
1514.4600, -56.638
1514.4800, -56.615
1514.5000, -56.605
1514.5200, -56.587
1514.5400, -56.575
1514.5600, -56.553
1514.5800, -56.540
1514.6000, -56.542
1514.6200, -56.530
1514.6400, -56.515
1514.6600, -56.515
1514.6800, -56.477
1514.7000, -56.463
1514.7200, -56.447
1514.7400, -56.436
1514.7600, -56.427
1514.7800, -56.404
1514.8000, -56.395
1514.8200, -56.375
1514.8400, -56.378
1514.8600, -56.376
1514.8800, -56.351
1514.9000, -56.340
1514.9200, -56.320
1514.9400, -56.316
1514.9600, -56.317
1514.9800, -56.293
1515.0000, -56.274
1515.0200, -56.267
1515.0400, -56.254
1515.0600, -56.248
1515.0800, -56.224
1515.1000, -56.225
1515.1200, -56.215
1515.1400, -56.188
1515.1600, -56.183
1515.1800, -56.161
1515.2000, -56.161
1515.2200, -56.140
1515.2400, -56.120
1515.2600, -56.110
1515.2800, -56.095
1515.3000, -56.089
1515.3200, -56.068
1515.3400, -56.048
1515.3600, -56.042
1515.3800, -56.024
1515.4000, -56.011
1515.4200, -55.992
1515.4400, -55.975
1515.4600, -55.968
1515.4800, -55.946
1515.5000, -55.922
1515.5200, -55.921
1515.5400, -55.916
1515.5600, -55.888
1515.5800, -55.882
1515.6000, -55.857
1515.6200, -55.848
1515.6400, -55.836
1515.6600, -55.816
1515.6800, -55.802
1515.7000, -55.781
1515.7200, -55.770
1515.7400, -55.751
1515.7600, -55.723
1515.7800, -55.713
1515.8000, -55.722
1515.8200, -55.711
1515.8400, -55.690
1515.8600, -55.673
1515.8800, -55.663
1515.9000, -55.649
1515.9200, -55.641
1515.9400, -55.612
1515.9600, -55.606
1515.9800, -55.589
1516.0000, -55.580
1516.0200, -55.572
1516.0400, -55.555
1516.0600, -55.548
1516.0800, -55.514
1516.1000, -55.508
1516.1200, -55.511
1516.1400, -55.489
1516.1600, -55.464
1516.1800, -55.437
1516.2000, -55.443
1516.2200, -55.429
1516.2400, -55.413
1516.2600, -55.394
1516.2800, -55.383
1516.3000, -55.357
1516.3200, -55.339
1516.3400, -55.332
1516.3600, -55.307
1516.3800, -55.288
1516.4000, -55.272
1516.4200, -55.253
1516.4400, -55.232
1516.4600, -55.221
1516.4800, -55.207
1516.5000, -55.190
1516.5200, -55.180
1516.5400, -55.151
1516.5600, -55.140
1516.5800, -55.125
1516.6000, -55.096
1516.6200, -55.085
1516.6400, -55.064
1516.6600, -55.054
1516.6800, -55.032
1516.7000, -55.003
1516.7200, -54.990
1516.7400, -54.992
1516.7600, -54.971
1516.7800, -54.951
1516.8000, -54.933
1516.8200, -54.914
1516.8400, -54.915
1516.8600, -54.899
1516.8800, -54.883
1516.9000, -54.857
1516.9200, -54.841
1516.9400, -54.823
1516.9600, -54.810
1516.9800, -54.803
1517.0000, -54.797
1517.0200, -54.766
1517.0400, -54.751
1517.0600, -54.743
1517.0800, -54.719
1517.1000, -54.708
1517.1200, -54.677
1517.1400, -54.663
1517.1600, -54.663
1517.1800, -54.639
1517.2000, -54.612
1517.2200, -54.597
1517.2400, -54.579
1517.2600, -54.555
1517.2800, -54.545
1517.3000, -54.523
1517.3200, -54.483
1517.3400, -54.482
1517.3600, -54.464
1517.3800, -54.441
1517.4000, -54.430
1517.4200, -54.422
1517.4400, -54.388
1517.4600, -54.374
1517.4800, -54.348
1517.5000, -54.329
1517.5200, -54.325
1517.5400, -54.301
1517.5600, -54.276
1517.5800, -54.254
1517.6000, -54.245
1517.6200, -54.219
1517.6400, -54.196
1517.6600, -54.176
1517.6800, -54.161
1517.7000, -54.143
1517.7200, -54.121
1517.7400, -54.103
1517.7600, -54.080
1517.7800, -54.066
1517.8000, -54.050
1517.8200, -54.041
1517.8400, -54.012
1517.8600, -53.993
1517.8800, -53.966
1517.9000, -53.959
1517.9200, -53.939
1517.9400, -53.939
1517.9600, -53.911
1517.9800, -53.889
1518.0000, -53.880
1518.0200, -53.862
1518.0400, -53.841
1518.0600, -53.810
1518.0800, -53.792
1518.1000, -53.781
1518.1200, -53.755
1518.1400, -53.723
1518.1600, -53.710
1518.1800, -53.690
1518.2000, -53.667
1518.2200, -53.655
1518.2400, -53.641
1518.2600, -53.610
1518.2800, -53.583
1518.3000, -53.558
1518.3200, -53.536
1518.3400, -53.519
1518.3600, -53.506
1518.3800, -53.474
1518.4000, -53.457
1518.4200, -53.427
1518.4400, -53.413
1518.4600, -53.398
1518.4800, -53.366
1518.5000, -53.345
1518.5200, -53.314
1518.5400, -53.297
1518.5600, -53.277
1518.5800, -53.244
1518.6000, -53.221
1518.6200, -53.209
1518.6400, -53.184
1518.6600, -53.164
1518.6800, -53.143
1518.7000, -53.128
1518.7200, -53.105
1518.7400, -53.087
1518.7600, -53.068
1518.7800, -53.040
1518.8000, -53.019
1518.8200, -52.992
1518.8400, -52.980
1518.8600, -52.965
1518.8800, -52.954
1518.9000, -52.917
1518.9200, -52.899
1518.9400, -52.884
1518.9600, -52.864
1518.9800, -52.826
1519.0000, -52.794
1519.0200, -52.783
1519.0400, -52.780
1519.0600, -52.745
1519.0800, -52.713
1519.1000, -52.697
1519.1200, -52.664
1519.1400, -52.635
1519.1600, -52.618
1519.1800, -52.581
1519.2000, -52.560
1519.2200, -52.532
1519.2400, -52.501
1519.2600, -52.476
1519.2800, -52.457
1519.3000, -52.440
1519.3200, -52.409
1519.3400, -52.384
1519.3600, -52.365
1519.3800, -52.332
1519.4000, -52.303
1519.4200, -52.266
1519.4400, -52.233
1519.4600, -52.213
1519.4800, -52.192
1519.5000, -52.161
1519.5200, -52.127
1519.5400, -52.100
1519.5600, -52.093
1519.5800, -52.065
1519.6000, -52.039
1519.6200, -52.009
1519.6400, -51.982
1519.6600, -51.972
1519.6800, -51.951
1519.7000, -51.920
1519.7200, -51.888
1519.7400, -51.863
1519.7600, -51.846
1519.7800, -51.826
1519.8000, -51.806
1519.8200, -51.782
1519.8400, -51.749
1519.8600, -51.715
1519.8800, -51.695
1519.9000, -51.663
1519.9200, -51.633
1519.9400, -51.598
1519.9600, -51.584
1519.9800, -51.575
1520.0000, -51.532
1520.0200, -51.515
1520.0400, -51.483
1520.0600, -51.444
1520.0800, -51.417
1520.1000, -51.384
1520.1200, -51.356
1520.1400, -51.315
1520.1600, -51.282
1520.1800, -51.252
1520.2000, -51.216
1520.2200, -51.201
1520.2400, -51.171
1520.2600, -51.145
1520.2800, -51.116
1520.3000, -51.082
1520.3200, -51.055
1520.3400, -51.024
1520.3600, -50.987
1520.3800, -50.952
1520.4000, -50.913
1520.4200, -50.898
1520.4400, -50.860
1520.4600, -50.810
1520.4800, -50.782
1520.5000, -50.769
1520.5200, -50.745
1520.5400, -50.705
1520.5600, -50.675
1520.5800, -50.637
1520.6000, -50.625
1520.6200, -50.600
