70BCSV 	
// AQ6370B OPTICAL SPECTRUM ANALYZER //                 
25
"CTRWL",1550.000000
"SPAN", 100.000000
"START WL",1500.000000
"STOP WL",1600.000000
"WLFREQ", 0
"REFL",-46.2
"LSCL", 5.0
"RESLN",0.100
"AVG",   1
"SMPLAUTO",      0
"SMPL",       5001
"SMPLINTVL",0.0200
"HIGH1"
"MEAS"
"LSUNT",0
"NMSKH","OFF"
"RESCOR",0
"RESPARM", 9050
"FREQPARM", 9050






"[TRACE DATA]"
1500.0000, -64.399
1500.0200, -64.418
1500.0400, -64.358
1500.0600, -64.328
1500.0800, -64.448
1500.1000, -64.345
1500.1200, -64.337
1500.1400, -64.365
1500.1600, -64.381
1500.1800, -64.333
1500.2000, -64.345
1500.2200, -64.368
1500.2400, -64.370
1500.2600, -64.280
1500.2800, -64.365
1500.3000, -64.300
1500.3200, -64.258
1500.3400, -64.317
1500.3600, -64.354
1500.3800, -64.361
1500.4000, -64.312
1500.4200, -64.296
1500.4400, -64.296
1500.4600, -64.331
1500.4800, -64.303
1500.5000, -64.296
1500.5200, -64.315
1500.5400, -64.267
1500.5600, -64.298
1500.5800, -64.255
1500.6000, -64.365
1500.6200, -64.302
1500.6400, -64.281
1500.6600, -64.243
1500.6800, -64.264
1500.7000, -64.260
1500.7200, -64.205
1500.7400, -64.260
1500.7600, -64.174
1500.7800, -64.291
1500.8000, -64.234
1500.8200, -64.235
1500.8400, -64.220
1500.8600, -64.244
1500.8800, -64.196
1500.9000, -64.141
1500.9200, -64.198
1500.9400, -64.167
1500.9600, -64.214
1500.9800, -64.130
1501.0000, -64.186
1501.0200, -64.167
1501.0400, -64.138
1501.0600, -64.104
1501.0800, -64.125
1501.1000, -64.142
1501.1200, -64.141
1501.1400, -64.121
1501.1600, -64.078
1501.1800, -64.129
1501.2000, -64.079
1501.2200, -64.149
1501.2400, -64.040
1501.2600, -64.093
1501.2800, -64.096
1501.3000, -64.069
1501.3200, -64.055
1501.3400, -64.094
1501.3600, -64.051
1501.3800, -64.087
1501.4000, -64.077
1501.4200, -64.039
1501.4400, -64.109
1501.4600, -64.060
1501.4800, -64.112
1501.5000, -64.063
1501.5200, -64.075
1501.5400, -64.053
1501.5600, -64.096
1501.5800, -64.098
1501.6000, -64.008
1501.6200, -64.034
1501.6400, -64.026
1501.6600, -63.999
1501.6800, -64.057
1501.7000, -64.014
1501.7200, -64.004
1501.7400, -64.002
1501.7600, -64.071
1501.7800, -63.986
1501.8000, -63.973
1501.8200, -63.993
1501.8400, -63.988
1501.8600, -63.954
1501.8800, -64.021
1501.9000, -63.944
1501.9200, -63.937
1501.9400, -63.990
1501.9600, -63.931
1501.9800, -63.925
1502.0000, -63.890
1502.0200, -63.841
1502.0400, -63.997
1502.0600, -63.893
1502.0800, -63.874
1502.1000, -63.848
1502.1200, -63.833
1502.1400, -63.981
1502.1600, -63.877
1502.1800, -63.851
1502.2000, -63.858
1502.2200, -63.846
1502.2400, -63.817
1502.2600, -63.851
1502.2800, -63.859
1502.3000, -63.770
1502.3200, -63.830
1502.3400, -63.854
1502.3600, -63.773
1502.3800, -63.860
1502.4000, -63.848
1502.4200, -63.823
1502.4400, -63.791
1502.4600, -63.818
1502.4800, -63.790
1502.5000, -63.806
1502.5200, -63.805
1502.5400, -63.853
1502.5600, -63.791
1502.5800, -63.806
1502.6000, -63.752
1502.6200, -63.801
1502.6400, -63.766
1502.6600, -63.787
1502.6800, -63.717
1502.7000, -63.768
1502.7200, -63.807
1502.7400, -63.742
1502.7600, -63.732
1502.7800, -63.722
1502.8000, -63.698
1502.8200, -63.732
1502.8400, -63.665
1502.8600, -63.640
1502.8800, -63.689
1502.9000, -63.700
1502.9200, -63.709
1502.9400, -63.612
1502.9600, -63.676
1502.9800, -63.678
1503.0000, -63.590
1503.0200, -63.642
1503.0400, -63.599
1503.0600, -63.639
1503.0800, -63.618
1503.1000, -63.605
1503.1200, -63.593
1503.1400, -63.606
1503.1600, -63.618
1503.1800, -63.610
1503.2000, -63.601
1503.2200, -63.604
1503.2400, -63.549
1503.2600, -63.581
1503.2800, -63.577
1503.3000, -63.601
1503.3200, -63.572
1503.3400, -63.573
1503.3600, -63.552
1503.3800, -63.574
1503.4000, -63.534
1503.4200, -63.582
1503.4400, -63.543
1503.4600, -63.545
1503.4800, -63.534
1503.5000, -63.575
1503.5200, -63.509
1503.5400, -63.523
1503.5600, -63.499
1503.5800, -63.515
1503.6000, -63.533
1503.6200, -63.532
1503.6400, -63.514
1503.6600, -63.452
1503.6800, -63.470
1503.7000, -63.488
1503.7200, -63.527
1503.7400, -63.412
1503.7600, -63.423
1503.7800, -63.474
1503.8000, -63.425
1503.8200, -63.400
1503.8400, -63.444
1503.8600, -63.400
1503.8800, -63.450
1503.9000, -63.344
1503.9200, -63.441
1503.9400, -63.344
1503.9600, -63.341
1503.9800, -63.388
1504.0000, -63.320
1504.0200, -63.406
1504.0400, -63.363
1504.0600, -63.389
1504.0800, -63.296
1504.1000, -63.320
1504.1200, -63.327
1504.1400, -63.352
1504.1600, -63.334
1504.1800, -63.254
1504.2000, -63.314
1504.2200, -63.291
1504.2400, -63.274
1504.2600, -63.310
1504.2800, -63.307
1504.3000, -63.256
1504.3200, -63.280
1504.3400, -63.296
1504.3600, -63.319
1504.3800, -63.325
1504.4000, -63.294
1504.4200, -63.214
1504.4400, -63.276
1504.4600, -63.257
1504.4800, -63.283
1504.5000, -63.203
1504.5200, -63.260
1504.5400, -63.214
1504.5600, -63.196
1504.5800, -63.221
1504.6000, -63.235
1504.6200, -63.164
1504.6400, -63.140
1504.6600, -63.166
1504.6800, -63.190
1504.7000, -63.191
1504.7200, -63.173
1504.7400, -63.158
1504.7600, -63.143
1504.7800, -63.165
1504.8000, -63.138
1504.8200, -63.111
1504.8400, -63.153
1504.8600, -63.057
1504.8800, -63.072
1504.9000, -63.102
1504.9200, -63.063
1504.9400, -63.095
1504.9600, -63.068
1504.9800, -63.042
1505.0000, -63.038
1505.0200, -63.060
1505.0400, -63.073
1505.0600, -62.970
1505.0800, -63.044
1505.1000, -62.980
1505.1200, -62.966
1505.1400, -63.019
1505.1600, -63.014
1505.1800, -62.961
1505.2000, -63.003
1505.2200, -62.986
1505.2400, -62.984
1505.2600, -62.966
1505.2800, -62.967
1505.3000, -62.970
1505.3200, -63.004
1505.3400, -62.972
1505.3600, -62.996
1505.3800, -62.903
1505.4000, -62.926
1505.4200, -62.978
1505.4400, -62.914
1505.4600, -62.980
1505.4800, -62.951
1505.5000, -62.941
1505.5200, -62.916
1505.5400, -62.915
1505.5600, -62.922
1505.5800, -62.903
1505.6000, -62.888
1505.6200, -62.863
1505.6400, -62.847
1505.6600, -62.864
1505.6800, -62.855
1505.7000, -62.853
1505.7200, -62.808
1505.7400, -62.798
1505.7600, -62.840
1505.7800, -62.847
1505.8000, -62.786
1505.8200, -62.757
1505.8400, -62.828
1505.8600, -62.742
1505.8800, -62.784
1505.9000, -62.737
1505.9200, -62.750
1505.9400, -62.747
1505.9600, -62.758
1505.9800, -62.722
1506.0000, -62.753
1506.0200, -62.678
1506.0400, -62.705
1506.0600, -62.688
1506.0800, -62.668
1506.1000, -62.701
1506.1200, -62.690
1506.1400, -62.713
1506.1600, -62.692
1506.1800, -62.696
1506.2000, -62.683
1506.2200, -62.692
1506.2400, -62.666
1506.2600, -62.711
1506.2800, -62.672
1506.3000, -62.640
1506.3200, -62.661
1506.3400, -62.648
1506.3600, -62.668
1506.3800, -62.642
1506.4000, -62.612
1506.4200, -62.610
1506.4400, -62.618
1506.4600, -62.601
1506.4800, -62.614
1506.5000, -62.632
1506.5200, -62.567
1506.5400, -62.585
1506.5600, -62.598
1506.5800, -62.543
1506.6000, -62.550
1506.6200, -62.542
1506.6400, -62.527
1506.6600, -62.525
1506.6800, -62.489
1506.7000, -62.545
1506.7200, -62.510
1506.7400, -62.527
1506.7600, -62.495
1506.7800, -62.456
1506.8000, -62.500
1506.8200, -62.456
1506.8400, -62.469
1506.8600, -62.457
1506.8800, -62.430
1506.9000, -62.464
1506.9200, -62.446
1506.9400, -62.430
1506.9600, -62.392
1506.9800, -62.415
1507.0000, -62.431
1507.0200, -62.419
1507.0400, -62.397
1507.0600, -62.392
1507.0800, -62.355
1507.1000, -62.393
1507.1200, -62.379
1507.1400, -62.382
1507.1600, -62.380
1507.1800, -62.376
1507.2000, -62.359
1507.2200, -62.377
1507.2400, -62.355
1507.2600, -62.363
1507.2800, -62.364
1507.3000, -62.374
1507.3200, -62.348
1507.3400, -62.353
1507.3600, -62.330
1507.3800, -62.332
1507.4000, -62.312
1507.4200, -62.325
1507.4400, -62.283
1507.4600, -62.286
1507.4800, -62.253
1507.5000, -62.293
1507.5200, -62.302
1507.5400, -62.217
1507.5600, -62.274
1507.5800, -62.253
1507.6000, -62.205
1507.6200, -62.240
1507.6400, -62.228
1507.6600, -62.197
1507.6800, -62.188
1507.7000, -62.188
1507.7200, -62.186
1507.7400, -62.161
1507.7600, -62.162
1507.7800, -62.137
1507.8000, -62.207
1507.8200, -62.136
1507.8400, -62.108
1507.8600, -62.142
1507.8800, -62.078
1507.9000, -62.086
1507.9200, -62.154
1507.9400, -62.104
1507.9600, -62.106
1507.9800, -62.086
1508.0000, -62.071
1508.0200, -62.070
1508.0400, -62.080
1508.0600, -62.043
1508.0800, -62.054
1508.1000, -62.065
1508.1200, -62.071
1508.1400, -62.064
1508.1600, -62.032
1508.1800, -62.037
1508.2000, -62.011
1508.2200, -62.041
1508.2400, -62.068
1508.2600, -62.064
1508.2800, -62.037
1508.3000, -62.051
1508.3200, -62.012
1508.3400, -62.031
1508.3600, -61.985
1508.3800, -61.985
1508.4000, -61.980
1508.4200, -61.960
1508.4400, -61.955
1508.4600, -61.935
1508.4800, -61.946
1508.5000, -61.957
1508.5200, -61.967
1508.5400, -61.941
1508.5600, -61.937
1508.5800, -61.917
1508.6000, -61.880
1508.6200, -61.884
1508.6400, -61.862
1508.6600, -61.887
1508.6800, -61.848
1508.7000, -61.862
1508.7200, -61.831
1508.7400, -61.868
1508.7600, -61.826
1508.7800, -61.807
1508.8000, -61.831
1508.8200, -61.806
1508.8400, -61.802
1508.8600, -61.822
1508.8800, -61.802
1508.9000, -61.766
1508.9200, -61.765
1508.9400, -61.770
1508.9600, -61.762
1508.9800, -61.754
1509.0000, -61.750
1509.0200, -61.719
1509.0400, -61.774
1509.0600, -61.769
1509.0800, -61.757
1509.1000, -61.766
1509.1200, -61.720
1509.1400, -61.719
1509.1600, -61.720
1509.1800, -61.726
1509.2000, -61.732
1509.2200, -61.728
1509.2400, -61.712
1509.2600, -61.695
1509.2800, -61.664
1509.3000, -61.656
1509.3200, -61.653
1509.3400, -61.655
1509.3600, -61.631
1509.3800, -61.668
1509.4000, -61.651
1509.4200, -61.637
1509.4400, -61.603
1509.4600, -61.602
1509.4800, -61.639
1509.5000, -61.623
1509.5200, -61.572
1509.5400, -61.577
1509.5600, -61.531
1509.5800, -61.540
1509.6000, -61.545
1509.6200, -61.553
1509.6400, -61.514
1509.6600, -61.502
1509.6800, -61.499
1509.7000, -61.507
1509.7200, -61.487
1509.7400, -61.530
1509.7600, -61.448
1509.7800, -61.463
1509.8000, -61.437
1509.8200, -61.494
1509.8400, -61.426
1509.8600, -61.439
1509.8800, -61.416
1509.9000, -61.421
1509.9200, -61.422
1509.9400, -61.411
1509.9600, -61.405
1509.9800, -61.418
1510.0000, -61.399
1510.0200, -61.415
1510.0400, -61.429
1510.0600, -61.384
1510.0800, -61.393
1510.1000, -61.358
1510.1200, -61.420
1510.1400, -61.380
1510.1600, -61.363
1510.1800, -61.391
1510.2000, -61.366
1510.2200, -61.372
1510.2400, -61.315
1510.2600, -61.331
1510.2800, -61.284
1510.3000, -61.305
1510.3200, -61.307
1510.3400, -61.311
1510.3600, -61.280
1510.3800, -61.249
1510.4000, -61.245
1510.4200, -61.256
1510.4400, -61.220
1510.4600, -61.238
1510.4800, -61.207
1510.5000, -61.196
1510.5200, -61.225
1510.5400, -61.172
1510.5600, -61.180
1510.5800, -61.165
1510.6000, -61.134
1510.6200, -61.136
1510.6400, -61.144
1510.6600, -61.130
1510.6800, -61.093
1510.7000, -61.099
1510.7200, -61.106
1510.7400, -61.082
1510.7600, -61.063
1510.7800, -61.090
1510.8000, -61.041
1510.8200, -61.070
1510.8400, -61.032
1510.8600, -61.039
1510.8800, -61.036
1510.9000, -61.024
1510.9200, -61.007
1510.9400, -61.007
1510.9600, -61.003
1510.9800, -60.994
1511.0000, -61.003
1511.0200, -60.985
1511.0400, -60.979
1511.0600, -61.017
1511.0800, -60.968
1511.1000, -60.994
1511.1200, -60.986
1511.1400, -60.958
1511.1600, -60.985
1511.1800, -60.904
1511.2000, -60.873
1511.2200, -60.936
1511.2400, -60.897
1511.2600, -60.899
1511.2800, -60.897
1511.3000, -60.874
1511.3200, -60.868
1511.3400, -60.845
1511.3600, -60.831
1511.3800, -60.851
1511.4000, -60.805
1511.4200, -60.807
1511.4400, -60.756
1511.4600, -60.760
1511.4800, -60.768
1511.5000, -60.766
1511.5200, -60.751
1511.5400, -60.734
1511.5600, -60.712
1511.5800, -60.725
1511.6000, -60.712
1511.6200, -60.706
1511.6400, -60.667
1511.6600, -60.660
1511.6800, -60.668
1511.7000, -60.658
1511.7200, -60.660
1511.7400, -60.621
1511.7600, -60.653
1511.7800, -60.605
1511.8000, -60.617
1511.8200, -60.616
1511.8400, -60.591
1511.8600, -60.570
1511.8800, -60.565
1511.9000, -60.600
1511.9200, -60.567
1511.9400, -60.596
1511.9600, -60.542
1511.9800, -60.566
1512.0000, -60.522
1512.0200, -60.544
1512.0400, -60.555
1512.0600, -60.598
1512.0800, -60.515
1512.1000, -60.524
1512.1200, -60.487
1512.1400, -60.488
1512.1600, -60.453
1512.1800, -60.470
1512.2000, -60.467
1512.2200, -60.425
1512.2400, -60.435
1512.2600, -60.432
1512.2800, -60.431
1512.3000, -60.403
1512.3200, -60.375
1512.3400, -60.395
1512.3600, -60.375
1512.3800, -60.354
1512.4000, -60.303
1512.4200, -60.340
1512.4400, -60.330
1512.4600, -60.332
1512.4800, -60.314
1512.5000, -60.294
1512.5200, -60.282
1512.5400, -60.261
1512.5600, -60.245
1512.5800, -60.259
1512.6000, -60.248
1512.6200, -60.203
1512.6400, -60.201
1512.6600, -60.207
1512.6800, -60.220
1512.7000, -60.195
1512.7200, -60.188
1512.7400, -60.153
1512.7600, -60.182
1512.7800, -60.160
1512.8000, -60.157
1512.8200, -60.139
1512.8400, -60.128
1512.8600, -60.143
1512.8800, -60.112
1512.9000, -60.151
1512.9200, -60.087
1512.9400, -60.102
1512.9600, -60.116
1512.9800, -60.104
1513.0000, -60.128
1513.0200, -60.126
1513.0400, -60.084
1513.0600, -60.056
1513.0800, -60.006
1513.1000, -60.020
1513.1200, -60.018
1513.1400, -60.053
1513.1600, -59.984
1513.1800, -60.010
1513.2000, -60.003
1513.2200, -59.988
1513.2400, -59.959
1513.2600, -59.943
1513.2800, -59.929
1513.3000, -59.924
1513.3200, -59.925
1513.3400, -59.899
1513.3600, -59.840
1513.3800, -59.879
1513.4000, -59.846
1513.4200, -59.868
1513.4400, -59.844
1513.4600, -59.813
1513.4800, -59.814
1513.5000, -59.811
1513.5200, -59.771
1513.5400, -59.793
1513.5600, -59.764
1513.5800, -59.752
1513.6000, -59.741
1513.6200, -59.743
1513.6400, -59.706
1513.6600, -59.727
1513.6800, -59.696
1513.7000, -59.713
1513.7200, -59.697
1513.7400, -59.655
1513.7600, -59.681
1513.7800, -59.675
1513.8000, -59.665
1513.8200, -59.663
1513.8400, -59.668
1513.8600, -59.659
1513.8800, -59.616
1513.9000, -59.619
1513.9200, -59.646
1513.9400, -59.648
1513.9600, -59.642
1513.9800, -59.639
1514.0000, -59.588
1514.0200, -59.565
1514.0400, -59.529
1514.0600, -59.540
1514.0800, -59.537
1514.1000, -59.541
1514.1200, -59.512
1514.1400, -59.524
1514.1600, -59.485
1514.1800, -59.468
1514.2000, -59.464
1514.2200, -59.457
1514.2400, -59.437
1514.2600, -59.441
1514.2800, -59.385
1514.3000, -59.368
1514.3200, -59.385
1514.3400, -59.383
1514.3600, -59.368
1514.3800, -59.344
1514.4000, -59.334
1514.4200, -59.319
1514.4400, -59.322
1514.4600, -59.281
1514.4800, -59.298
1514.5000, -59.260
1514.5200, -59.284
1514.5400, -59.245
1514.5600, -59.251
1514.5800, -59.229
1514.6000, -59.227
1514.6200, -59.222
1514.6400, -59.188
1514.6600, -59.207
1514.6800, -59.189
1514.7000, -59.166
1514.7200, -59.174
1514.7400, -59.161
1514.7600, -59.177
1514.7800, -59.153
1514.8000, -59.155
1514.8200, -59.132
1514.8400, -59.127
1514.8600, -59.158
1514.8800, -59.159
1514.9000, -59.139
1514.9200, -59.128
1514.9400, -59.113
1514.9600, -59.072
1514.9800, -59.036
1515.0000, -59.026
1515.0200, -59.041
1515.0400, -59.007
1515.0600, -59.011
1515.0800, -58.992
1515.1000, -58.970
1515.1200, -58.969
1515.1400, -58.972
1515.1600, -58.936
1515.1800, -58.911
1515.2000, -58.913
1515.2200, -58.884
1515.2400, -58.856
1515.2600, -58.862
1515.2800, -58.839
1515.3000, -58.823
1515.3200, -58.819
1515.3400, -58.798
1515.3600, -58.809
1515.3800, -58.780
1515.4000, -58.759
1515.4200, -58.756
1515.4400, -58.747
1515.4600, -58.743
1515.4800, -58.732
1515.5000, -58.707
1515.5200, -58.690
1515.5400, -58.669
1515.5600, -58.667
1515.5800, -58.661
1515.6000, -58.645
1515.6200, -58.656
1515.6400, -58.618
1515.6600, -58.640
1515.6800, -58.624
1515.7000, -58.607
1515.7200, -58.618
1515.7400, -58.602
1515.7600, -58.574
1515.7800, -58.577
1515.8000, -58.601
1515.8200, -58.609
1515.8400, -58.585
1515.8600, -58.572
1515.8800, -58.548
1515.9000, -58.509
1515.9200, -58.495
1515.9400, -58.469
1515.9600, -58.469
1515.9800, -58.461
1516.0000, -58.442
1516.0200, -58.419
1516.0400, -58.435
1516.0600, -58.384
1516.0800, -58.396
1516.1000, -58.373
1516.1200, -58.346
1516.1400, -58.332
1516.1600, -58.335
1516.1800, -58.292
1516.2000, -58.281
1516.2200, -58.273
1516.2400, -58.269
1516.2600, -58.242
1516.2800, -58.214
1516.3000, -58.215
1516.3200, -58.205
1516.3400, -58.185
1516.3600, -58.169
1516.3800, -58.168
1516.4000, -58.161
1516.4200, -58.143
1516.4400, -58.124
1516.4600, -58.097
1516.4800, -58.091
1516.5000, -58.089
1516.5200, -58.044
1516.5400, -58.042
1516.5600, -58.043
1516.5800, -58.006
1516.6000, -58.019
1516.6200, -58.026
1516.6400, -58.000
1516.6600, -57.991
1516.6800, -57.983
1516.7000, -57.966
1516.7200, -57.952
1516.7400, -57.968
1516.7600, -57.972
1516.7800, -57.959
1516.8000, -57.961
1516.8200, -57.947
1516.8400, -57.899
1516.8600, -57.866
1516.8800, -57.839
1516.9000, -57.839
1516.9200, -57.826
1516.9400, -57.797
1516.9600, -57.791
1516.9800, -57.775
1517.0000, -57.739
1517.0200, -57.749
1517.0400, -57.732
1517.0600, -57.700
1517.0800, -57.709
1517.1000, -57.685
1517.1200, -57.635
1517.1400, -57.639
1517.1600, -57.604
1517.1800, -57.585
1517.2000, -57.604
1517.2200, -57.547
1517.2400, -57.542
1517.2600, -57.542
1517.2800, -57.512
1517.3000, -57.510
1517.3200, -57.506
1517.3400, -57.489
1517.3600, -57.479
1517.3800, -57.466
1517.4000, -57.422
1517.4200, -57.408
1517.4400, -57.387
1517.4600, -57.366
1517.4800, -57.362
1517.5000, -57.347
1517.5200, -57.337
1517.5400, -57.334
1517.5600, -57.309
1517.5800, -57.309
1517.6000, -57.299
1517.6200, -57.275
1517.6400, -57.272
1517.6600, -57.271
1517.6800, -57.272
1517.7000, -57.259
1517.7200, -57.237
1517.7400, -57.225
1517.7600, -57.222
1517.7800, -57.194
1517.8000, -57.144
1517.8200, -57.118
1517.8400, -57.093
1517.8600, -57.096
1517.8800, -57.063
1517.9000, -57.051
1517.9200, -57.033
1517.9400, -57.011
1517.9600, -57.018
1517.9800, -56.993
1518.0000, -56.969
1518.0200, -56.954
1518.0400, -56.934
1518.0600, -56.903
1518.0800, -56.870
1518.1000, -56.840
1518.1200, -56.840
1518.1400, -56.809
1518.1600, -56.796
1518.1800, -56.788
1518.2000, -56.778
1518.2200, -56.738
1518.2400, -56.736
1518.2600, -56.720
1518.2800, -56.725
1518.3000, -56.701
1518.3200, -56.678
1518.3400, -56.644
1518.3600, -56.620
1518.3800, -56.614
1518.4000, -56.591
1518.4200, -56.561
1518.4400, -56.564
1518.4600, -56.530
1518.4800, -56.543
1518.5000, -56.526
1518.5200, -56.517
1518.5400, -56.482
1518.5600, -56.475
1518.5800, -56.459
1518.6000, -56.459
1518.6200, -56.456
1518.6400, -56.439
1518.6600, -56.420
1518.6800, -56.403
1518.7000, -56.391
1518.7200, -56.373
1518.7400, -56.332
1518.7600, -56.304
1518.7800, -56.256
1518.8000, -56.260
1518.8200, -56.228
1518.8400, -56.220
1518.8600, -56.188
1518.8800, -56.172
1518.9000, -56.173
1518.9200, -56.151
1518.9400, -56.107
1518.9600, -56.106
1518.9800, -56.077
1519.0000, -56.044
1519.0200, -56.004
1519.0400, -55.984
1519.0600, -55.974
1519.0800, -55.950
1519.1000, -55.919
1519.1200, -55.906
1519.1400, -55.887
1519.1600, -55.855
1519.1800, -55.836
1519.2000, -55.835
1519.2200, -55.821
1519.2400, -55.799
1519.2600, -55.772
1519.2800, -55.744
1519.3000, -55.709
1519.3200, -55.701
1519.3400, -55.668
1519.3600, -55.652
1519.3800, -55.630
1519.4000, -55.612
1519.4200, -55.610
1519.4400, -55.586
1519.4600, -55.578
1519.4800, -55.545
1519.5000, -55.538
1519.5200, -55.511
1519.5400, -55.507
1519.5600, -55.510
1519.5800, -55.485
1519.6000, -55.456
1519.6200, -55.428
1519.6400, -55.440
1519.6600, -55.397
1519.6800, -55.358
1519.7000, -55.332
1519.7200, -55.294
1519.7400, -55.275
1519.7600, -55.242
1519.7800, -55.233
1519.8000, -55.195
1519.8200, -55.178
1519.8400, -55.172
1519.8600, -55.133
1519.8800, -55.105
1519.9000, -55.089
1519.9200, -55.059
1519.9400, -55.030
1519.9600, -54.987
1519.9800, -54.950
1520.0000, -54.940
1520.0200, -54.908
1520.0400, -54.874
1520.0600, -54.877
1520.0800, -54.829
1520.1000, -54.793
1520.1200, -54.782
1520.1400, -54.761
1520.1600, -54.752
1520.1800, -54.730
1520.2000, -54.694
1520.2200, -54.655
1520.2400, -54.623
1520.2600, -54.615
1520.2800, -54.581
1520.3000, -54.549
1520.3200, -54.538
1520.3400, -54.517
1520.3600, -54.508
1520.3800, -54.488
1520.4000, -54.458
1520.4200, -54.438
1520.4400, -54.423
1520.4600, -54.406
1520.4800, -54.392
1520.5000, -54.372
1520.5200, -54.341
1520.5400, -54.313
1520.5600, -54.288
1520.5800, -54.277
1520.6000, -54.235
1520.6200, -54.207
