70BCSV 	
// AQ6370B OPTICAL SPECTRUM ANALYZER //                 
25
"CTRWL",1550.000000
"SPAN", 100.000000
"START WL",1500.000000
"STOP WL",1600.000000
"WLFREQ", 0
"REFL",-28.8
"LSCL", 5.0
"RESLN",0.100
"AVG",   1
"SMPLAUTO",      0
"SMPL",       5001
"SMPLINTVL",0.0200
"HIGH1"
"MEAS"
"LSUNT",0
"NMSKH","OFF"
"RESCOR",0
"RESPARM", 9050
"FREQPARM", 9050






"[TRACE DATA]"
1500.0000, -62.027
1500.0200, -62.028
1500.0400, -62.040
1500.0600, -61.987
1500.0800, -61.978
1500.1000, -62.004
1500.1200, -62.017
1500.1400, -61.958
1500.1600, -61.997
1500.1800, -61.939
1500.2000, -61.994
1500.2200, -61.956
1500.2400, -61.915
1500.2600, -61.957
1500.2800, -61.959
1500.3000, -61.983
1500.3200, -61.904
1500.3400, -61.939
1500.3600, -61.925
1500.3800, -61.895
1500.4000, -61.893
1500.4200, -61.884
1500.4400, -61.914
1500.4600, -61.929
1500.4800, -61.858
1500.5000, -61.869
1500.5200, -61.875
1500.5400, -61.875
1500.5600, -61.865
1500.5800, -61.868
1500.6000, -61.883
1500.6200, -61.813
1500.6400, -61.837
1500.6600, -61.830
1500.6800, -61.821
1500.7000, -61.828
1500.7200, -61.820
1500.7400, -61.802
1500.7600, -61.809
1500.7800, -61.820
1500.8000, -61.805
1500.8200, -61.782
1500.8400, -61.793
1500.8600, -61.771
1500.8800, -61.804
1500.9000, -61.775
1500.9200, -61.765
1500.9400, -61.762
1500.9600, -61.754
1500.9800, -61.775
1501.0000, -61.747
1501.0200, -61.736
1501.0400, -61.695
1501.0600, -61.714
1501.0800, -61.740
1501.1000, -61.764
1501.1200, -61.680
1501.1400, -61.708
1501.1600, -61.689
1501.1800, -61.682
1501.2000, -61.698
1501.2200, -61.647
1501.2400, -61.658
1501.2600, -61.671
1501.2800, -61.656
1501.3000, -61.671
1501.3200, -61.668
1501.3400, -61.614
1501.3600, -61.671
1501.3800, -61.646
1501.4000, -61.612
1501.4200, -61.610
1501.4400, -61.645
1501.4600, -61.589
1501.4800, -61.573
1501.5000, -61.574
1501.5200, -61.589
1501.5400, -61.615
1501.5600, -61.535
1501.5800, -61.551
1501.6000, -61.574
1501.6200, -61.599
1501.6400, -61.582
1501.6600, -61.554
1501.6800, -61.550
1501.7000, -61.556
1501.7200, -61.556
1501.7400, -61.514
1501.7600, -61.548
1501.7800, -61.505
1501.8000, -61.511
1501.8200, -61.525
1501.8400, -61.502
1501.8600, -61.544
1501.8800, -61.482
1501.9000, -61.515
1501.9200, -61.471
1501.9400, -61.470
1501.9600, -61.480
1501.9800, -61.456
1502.0000, -61.486
1502.0200, -61.427
1502.0400, -61.468
1502.0600, -61.420
1502.0800, -61.433
1502.1000, -61.427
1502.1200, -61.415
1502.1400, -61.410
1502.1600, -61.379
1502.1800, -61.442
1502.2000, -61.379
1502.2200, -61.393
1502.2400, -61.373
1502.2600, -61.387
1502.2800, -61.366
1502.3000, -61.373
1502.3200, -61.377
1502.3400, -61.330
1502.3600, -61.346
1502.3800, -61.337
1502.4000, -61.328
1502.4200, -61.287
1502.4400, -61.325
1502.4600, -61.302
1502.4800, -61.299
1502.5000, -61.299
1502.5200, -61.283
1502.5400, -61.286
1502.5600, -61.284
1502.5800, -61.248
1502.6000, -61.282
1502.6200, -61.233
1502.6400, -61.242
1502.6600, -61.237
1502.6800, -61.258
1502.7000, -61.209
1502.7200, -61.204
1502.7400, -61.232
1502.7600, -61.246
1502.7800, -61.213
1502.8000, -61.233
1502.8200, -61.195
1502.8400, -61.176
1502.8600, -61.207
1502.8800, -61.155
1502.9000, -61.186
1502.9200, -61.153
1502.9400, -61.161
1502.9600, -61.136
1502.9800, -61.156
1503.0000, -61.117
1503.0200, -61.133
1503.0400, -61.139
1503.0600, -61.086
1503.0800, -61.122
1503.1000, -61.098
1503.1200, -61.108
1503.1400, -61.089
1503.1600, -61.057
1503.1800, -61.066
1503.2000, -61.082
1503.2200, -61.043
1503.2400, -61.064
1503.2600, -61.047
1503.2800, -61.067
1503.3000, -61.035
1503.3200, -61.031
1503.3400, -61.020
1503.3600, -61.000
1503.3800, -61.003
1503.4000, -60.982
1503.4200, -61.013
1503.4400, -60.948
1503.4600, -60.982
1503.4800, -60.957
1503.5000, -60.964
1503.5200, -60.996
1503.5400, -60.939
1503.5600, -60.955
1503.5800, -60.930
1503.6000, -60.926
1503.6200, -60.904
1503.6400, -60.919
1503.6600, -60.904
1503.6800, -60.905
1503.7000, -60.884
1503.7200, -60.874
1503.7400, -60.895
1503.7600, -60.891
1503.7800, -60.878
1503.8000, -60.856
1503.8200, -60.901
1503.8400, -60.848
1503.8600, -60.864
1503.8800, -60.861
1503.9000, -60.868
1503.9200, -60.835
1503.9400, -60.797
1503.9600, -60.806
1503.9800, -60.818
1504.0000, -60.828
1504.0200, -60.807
1504.0400, -60.798
1504.0600, -60.781
1504.0800, -60.781
1504.1000, -60.767
1504.1200, -60.757
1504.1400, -60.776
1504.1600, -60.733
1504.1800, -60.733
1504.2000, -60.722
1504.2200, -60.728
1504.2400, -60.683
1504.2600, -60.731
1504.2800, -60.691
1504.3000, -60.664
1504.3200, -60.679
1504.3400, -60.683
1504.3600, -60.646
1504.3800, -60.682
1504.4000, -60.654
1504.4200, -60.675
1504.4400, -60.631
1504.4600, -60.632
1504.4800, -60.614
1504.5000, -60.623
1504.5200, -60.622
1504.5400, -60.566
1504.5600, -60.596
1504.5800, -60.589
1504.6000, -60.566
1504.6200, -60.564
1504.6400, -60.576
1504.6600, -60.554
1504.6800, -60.544
1504.7000, -60.526
1504.7200, -60.554
1504.7400, -60.530
1504.7600, -60.543
1504.7800, -60.529
1504.8000, -60.504
1504.8200, -60.504
1504.8400, -60.505
1504.8600, -60.484
1504.8800, -60.463
1504.9000, -60.459
1504.9200, -60.455
1504.9400, -60.436
1504.9600, -60.447
1504.9800, -60.450
1505.0000, -60.427
1505.0200, -60.430
1505.0400, -60.390
1505.0600, -60.404
1505.0800, -60.408
1505.1000, -60.395
1505.1200, -60.394
1505.1400, -60.374
1505.1600, -60.365
1505.1800, -60.362
1505.2000, -60.367
1505.2200, -60.351
1505.2400, -60.360
1505.2600, -60.319
1505.2800, -60.326
1505.3000, -60.306
1505.3200, -60.303
1505.3400, -60.284
1505.3600, -60.306
1505.3800, -60.287
1505.4000, -60.282
1505.4200, -60.273
1505.4400, -60.260
1505.4600, -60.236
1505.4800, -60.258
1505.5000, -60.244
1505.5200, -60.223
1505.5400, -60.231
1505.5600, -60.210
1505.5800, -60.224
1505.6000, -60.200
1505.6200, -60.174
1505.6400, -60.186
1505.6600, -60.182
1505.6800, -60.203
1505.7000, -60.171
1505.7200, -60.160
1505.7400, -60.145
1505.7600, -60.163
1505.7800, -60.139
1505.8000, -60.141
1505.8200, -60.102
1505.8400, -60.149
1505.8600, -60.133
1505.8800, -60.100
1505.9000, -60.090
1505.9200, -60.115
1505.9400, -60.045
1505.9600, -60.049
1505.9800, -60.069
1506.0000, -60.053
1506.0200, -60.032
1506.0400, -60.031
1506.0600, -60.034
1506.0800, -60.038
1506.1000, -60.005
1506.1200, -60.027
1506.1400, -59.999
1506.1600, -59.993
1506.1800, -60.010
1506.2000, -59.931
1506.2200, -59.960
1506.2400, -59.975
1506.2600, -59.938
1506.2800, -59.931
1506.3000, -59.925
1506.3200, -59.948
1506.3400, -59.903
1506.3600, -59.899
1506.3800, -59.907
1506.4000, -59.889
1506.4200, -59.913
1506.4400, -59.891
1506.4600, -59.852
1506.4800, -59.838
1506.5000, -59.883
1506.5200, -59.835
1506.5400, -59.810
1506.5600, -59.838
1506.5800, -59.811
1506.6000, -59.818
1506.6200, -59.798
1506.6400, -59.810
1506.6600, -59.807
1506.6800, -59.777
1506.7000, -59.793
1506.7200, -59.789
1506.7400, -59.798
1506.7600, -59.753
1506.7800, -59.778
1506.8000, -59.739
1506.8200, -59.756
1506.8400, -59.734
1506.8600, -59.721
1506.8800, -59.709
1506.9000, -59.693
1506.9200, -59.690
1506.9400, -59.710
1506.9600, -59.674
1506.9800, -59.661
1507.0000, -59.655
1507.0200, -59.660
1507.0400, -59.643
1507.0600, -59.660
1507.0800, -59.621
1507.1000, -59.609
1507.1200, -59.614
1507.1400, -59.628
1507.1600, -59.600
1507.1800, -59.600
1507.2000, -59.566
1507.2200, -59.585
1507.2400, -59.555
1507.2600, -59.576
1507.2800, -59.557
1507.3000, -59.564
1507.3200, -59.530
1507.3400, -59.532
1507.3600, -59.523
1507.3800, -59.524
1507.4000, -59.478
1507.4200, -59.505
1507.4400, -59.486
1507.4600, -59.481
1507.4800, -59.477
1507.5000, -59.449
1507.5200, -59.447
1507.5400, -59.444
1507.5600, -59.427
1507.5800, -59.428
1507.6000, -59.427
1507.6200, -59.440
1507.6400, -59.394
1507.6600, -59.411
1507.6800, -59.375
1507.7000, -59.389
1507.7200, -59.378
1507.7400, -59.359
1507.7600, -59.367
1507.7800, -59.363
1507.8000, -59.348
1507.8200, -59.330
1507.8400, -59.321
1507.8600, -59.303
1507.8800, -59.354
1507.9000, -59.322
1507.9200, -59.275
1507.9400, -59.278
1507.9600, -59.261
1507.9800, -59.270
1508.0000, -59.244
1508.0200, -59.253
1508.0400, -59.238
1508.0600, -59.230
1508.0800, -59.223
1508.1000, -59.199
1508.1200, -59.229
1508.1400, -59.210
1508.1600, -59.173
1508.1800, -59.187
1508.2000, -59.147
1508.2200, -59.170
1508.2400, -59.143
1508.2600, -59.168
1508.2800, -59.142
1508.3000, -59.129
1508.3200, -59.117
1508.3400, -59.130
1508.3600, -59.107
1508.3800, -59.106
1508.4000, -59.099
1508.4200, -59.089
1508.4400, -59.061
1508.4600, -59.065
1508.4800, -59.058
1508.5000, -59.051
1508.5200, -59.057
1508.5400, -59.062
1508.5600, -59.049
1508.5800, -59.017
1508.6000, -59.000
1508.6200, -58.993
1508.6400, -59.007
1508.6600, -58.988
1508.6800, -58.996
1508.7000, -58.965
1508.7200, -58.970
1508.7400, -58.957
1508.7600, -58.948
1508.7800, -58.929
1508.8000, -58.931
1508.8200, -58.930
1508.8400, -58.916
1508.8600, -58.903
1508.8800, -58.886
1508.9000, -58.897
1508.9200, -58.892
1508.9400, -58.849
1508.9600, -58.858
1508.9800, -58.857
1509.0000, -58.823
1509.0200, -58.815
1509.0400, -58.827
1509.0600, -58.816
1509.0800, -58.818
1509.1000, -58.803
1509.1200, -58.792
1509.1400, -58.793
1509.1600, -58.772
1509.1800, -58.759
1509.2000, -58.738
1509.2200, -58.730
1509.2400, -58.732
1509.2600, -58.721
1509.2800, -58.718
1509.3000, -58.722
1509.3200, -58.679
1509.3400, -58.706
1509.3600, -58.667
1509.3800, -58.681
1509.4000, -58.647
1509.4200, -58.661
1509.4400, -58.642
1509.4600, -58.621
1509.4800, -58.637
1509.5000, -58.618
1509.5200, -58.614
1509.5400, -58.603
1509.5600, -58.609
1509.5800, -58.587
1509.6000, -58.597
1509.6200, -58.577
1509.6400, -58.561
1509.6600, -58.551
1509.6800, -58.552
1509.7000, -58.539
1509.7200, -58.516
1509.7400, -58.529
1509.7600, -58.508
1509.7800, -58.500
1509.8000, -58.501
1509.8200, -58.491
1509.8400, -58.473
1509.8600, -58.445
1509.8800, -58.456
1509.9000, -58.457
1509.9200, -58.432
1509.9400, -58.427
1509.9600, -58.416
1509.9800, -58.415
1510.0000, -58.414
1510.0200, -58.383
1510.0400, -58.387
1510.0600, -58.360
1510.0800, -58.352
1510.1000, -58.358
1510.1200, -58.358
1510.1400, -58.321
1510.1600, -58.323
1510.1800, -58.301
1510.2000, -58.275
1510.2200, -58.293
1510.2400, -58.288
1510.2600, -58.288
1510.2800, -58.259
1510.3000, -58.222
1510.3200, -58.239
1510.3400, -58.221
1510.3600, -58.200
1510.3800, -58.200
1510.4000, -58.181
1510.4200, -58.178
1510.4400, -58.171
1510.4600, -58.174
1510.4800, -58.150
1510.5000, -58.136
1510.5200, -58.140
1510.5400, -58.116
1510.5600, -58.126
1510.5800, -58.100
1510.6000, -58.120
1510.6200, -58.080
1510.6400, -58.081
1510.6600, -58.065
1510.6800, -58.043
1510.7000, -58.050
1510.7200, -58.026
1510.7400, -58.016
1510.7600, -58.008
1510.7800, -57.990
1510.8000, -57.962
1510.8200, -57.985
1510.8400, -57.967
1510.8600, -57.963
1510.8800, -57.927
1510.9000, -57.933
1510.9200, -57.931
1510.9400, -57.908
1510.9600, -57.897
1510.9800, -57.895
1511.0000, -57.881
1511.0200, -57.872
1511.0400, -57.862
1511.0600, -57.841
1511.0800, -57.841
1511.1000, -57.837
1511.1200, -57.814
1511.1400, -57.791
1511.1600, -57.789
1511.1800, -57.785
1511.2000, -57.778
1511.2200, -57.752
1511.2400, -57.761
1511.2600, -57.743
1511.2800, -57.722
1511.3000, -57.714
1511.3200, -57.699
1511.3400, -57.683
1511.3600, -57.707
1511.3800, -57.668
1511.4000, -57.660
1511.4200, -57.654
1511.4400, -57.638
1511.4600, -57.634
1511.4800, -57.602
1511.5000, -57.595
1511.5200, -57.604
1511.5400, -57.595
1511.5600, -57.585
1511.5800, -57.567
1511.6000, -57.560
1511.6200, -57.538
1511.6400, -57.536
1511.6600, -57.524
1511.6800, -57.508
1511.7000, -57.486
1511.7200, -57.491
1511.7400, -57.481
1511.7600, -57.453
1511.7800, -57.453
1511.8000, -57.436
1511.8200, -57.417
1511.8400, -57.417
1511.8600, -57.395
1511.8800, -57.385
1511.9000, -57.381
1511.9200, -57.362
1511.9400, -57.360
1511.9600, -57.345
1511.9800, -57.329
1512.0000, -57.311
1512.0200, -57.312
1512.0400, -57.288
1512.0600, -57.301
1512.0800, -57.275
1512.1000, -57.249
1512.1200, -57.251
1512.1400, -57.235
1512.1600, -57.229
1512.1800, -57.214
1512.2000, -57.204
1512.2200, -57.211
1512.2400, -57.188
1512.2600, -57.178
1512.2800, -57.154
1512.3000, -57.159
1512.3200, -57.145
1512.3400, -57.149
1512.3600, -57.123
1512.3800, -57.116
1512.4000, -57.098
1512.4200, -57.092
1512.4400, -57.091
1512.4600, -57.082
1512.4800, -57.063
1512.5000, -57.062
1512.5200, -57.048
1512.5400, -57.031
1512.5600, -57.024
1512.5800, -56.996
1512.6000, -56.981
1512.6200, -56.991
1512.6400, -56.965
1512.6600, -56.957
1512.6800, -56.946
1512.7000, -56.935
1512.7200, -56.919
1512.7400, -56.921
1512.7600, -56.879
1512.7800, -56.893
1512.8000, -56.856
1512.8200, -56.859
1512.8400, -56.838
1512.8600, -56.831
1512.8800, -56.828
1512.9000, -56.803
1512.9200, -56.798
1512.9400, -56.782
1512.9600, -56.778
1512.9800, -56.757
1513.0000, -56.754
1513.0200, -56.749
1513.0400, -56.721
1513.0600, -56.726
1513.0800, -56.687
1513.1000, -56.699
1513.1200, -56.680
1513.1400, -56.672
1513.1600, -56.665
1513.1800, -56.638
1513.2000, -56.634
1513.2200, -56.624
1513.2400, -56.622
1513.2600, -56.610
1513.2800, -56.600
1513.3000, -56.565
1513.3200, -56.580
1513.3400, -56.560
1513.3600, -56.543
1513.3800, -56.537
1513.4000, -56.518
1513.4200, -56.497
1513.4400, -56.500
1513.4600, -56.487
1513.4800, -56.481
1513.5000, -56.460
1513.5200, -56.434
1513.5400, -56.431
1513.5600, -56.432
1513.5800, -56.415
1513.6000, -56.399
1513.6200, -56.370
1513.6400, -56.366
1513.6600, -56.364
1513.6800, -56.344
1513.7000, -56.331
1513.7200, -56.329
1513.7400, -56.303
1513.7600, -56.291
1513.7800, -56.281
1513.8000, -56.285
1513.8200, -56.269
1513.8400, -56.248
1513.8600, -56.214
1513.8800, -56.215
1513.9000, -56.206
1513.9200, -56.188
1513.9400, -56.182
1513.9600, -56.183
1513.9800, -56.147
1514.0000, -56.138
1514.0200, -56.111
1514.0400, -56.106
1514.0600, -56.097
1514.0800, -56.093
1514.1000, -56.075
1514.1200, -56.069
1514.1400, -56.062
1514.1600, -56.044
1514.1800, -56.021
1514.2000, -56.024
1514.2200, -56.005
1514.2400, -56.000
1514.2600, -55.969
1514.2800, -55.958
1514.3000, -55.952
1514.3200, -55.947
1514.3400, -55.935
1514.3600, -55.915
1514.3800, -55.898
1514.4000, -55.899
1514.4200, -55.877
1514.4400, -55.867
1514.4600, -55.860
1514.4800, -55.849
1514.5000, -55.823
1514.5200, -55.811
1514.5400, -55.800
1514.5600, -55.775
1514.5800, -55.772
1514.6000, -55.741
1514.6200, -55.751
1514.6400, -55.735
1514.6600, -55.723
1514.6800, -55.715
1514.7000, -55.685
1514.7200, -55.681
1514.7400, -55.667
1514.7600, -55.641
1514.7800, -55.629
1514.8000, -55.622
1514.8200, -55.602
1514.8400, -55.602
1514.8600, -55.585
1514.8800, -55.571
1514.9000, -55.570
1514.9200, -55.539
1514.9400, -55.525
1514.9600, -55.509
1514.9800, -55.505
1515.0000, -55.483
1515.0200, -55.473
1515.0400, -55.453
1515.0600, -55.427
1515.0800, -55.429
1515.1000, -55.411
1515.1200, -55.392
1515.1400, -55.381
1515.1600, -55.384
1515.1800, -55.365
1515.2000, -55.351
1515.2200, -55.328
1515.2400, -55.312
1515.2600, -55.299
1515.2800, -55.290
1515.3000, -55.286
1515.3200, -55.264
1515.3400, -55.267
1515.3600, -55.238
1515.3800, -55.219
1515.4000, -55.206
1515.4200, -55.196
1515.4400, -55.170
1515.4600, -55.153
1515.4800, -55.136
1515.5000, -55.119
1515.5200, -55.118
1515.5400, -55.105
1515.5600, -55.108
1515.5800, -55.067
1515.6000, -55.062
1515.6200, -55.057
1515.6400, -55.034
1515.6600, -55.019
1515.6800, -55.000
1515.7000, -54.975
1515.7200, -54.973
1515.7400, -54.949
1515.7600, -54.934
1515.7800, -54.929
1515.8000, -54.911
1515.8200, -54.891
1515.8400, -54.885
1515.8600, -54.861
1515.8800, -54.856
1515.9000, -54.837
1515.9200, -54.813
1515.9400, -54.812
1515.9600, -54.804
1515.9800, -54.769
1516.0000, -54.769
1516.0200, -54.748
1516.0400, -54.726
1516.0600, -54.709
1516.0800, -54.690
1516.1000, -54.692
1516.1200, -54.673
1516.1400, -54.646
1516.1600, -54.654
1516.1800, -54.616
1516.2000, -54.601
1516.2200, -54.597
1516.2400, -54.580
1516.2600, -54.557
1516.2800, -54.550
1516.3000, -54.535
1516.3200, -54.516
1516.3400, -54.502
1516.3600, -54.488
1516.3800, -54.453
1516.4000, -54.445
1516.4200, -54.426
1516.4400, -54.398
1516.4600, -54.394
1516.4800, -54.383
1516.5000, -54.382
1516.5200, -54.352
1516.5400, -54.327
1516.5600, -54.319
1516.5800, -54.304
1516.6000, -54.276
1516.6200, -54.273
1516.6400, -54.246
1516.6600, -54.220
1516.6800, -54.199
1516.7000, -54.199
1516.7200, -54.174
1516.7400, -54.169
1516.7600, -54.143
1516.7800, -54.128
1516.8000, -54.115
1516.8200, -54.094
1516.8400, -54.078
1516.8600, -54.059
1516.8800, -54.040
1516.9000, -54.016
1516.9200, -54.007
1516.9400, -53.995
1516.9600, -53.969
1516.9800, -53.956
1517.0000, -53.926
1517.0200, -53.911
1517.0400, -53.903
1517.0600, -53.881
1517.0800, -53.865
1517.1000, -53.850
1517.1200, -53.826
1517.1400, -53.806
1517.1600, -53.795
1517.1800, -53.783
1517.2000, -53.754
1517.2200, -53.753
1517.2400, -53.734
1517.2600, -53.716
1517.2800, -53.696
1517.3000, -53.667
1517.3200, -53.647
1517.3400, -53.633
1517.3600, -53.603
1517.3800, -53.596
1517.4000, -53.568
1517.4200, -53.560
1517.4400, -53.541
1517.4600, -53.520
1517.4800, -53.499
1517.5000, -53.489
1517.5200, -53.463
1517.5400, -53.446
1517.5600, -53.424
1517.5800, -53.398
1517.6000, -53.375
1517.6200, -53.371
1517.6400, -53.343
1517.6600, -53.325
1517.6800, -53.298
1517.7000, -53.281
1517.7200, -53.261
1517.7400, -53.239
1517.7600, -53.214
1517.7800, -53.212
1517.8000, -53.190
1517.8200, -53.171
1517.8400, -53.154
1517.8600, -53.117
1517.8800, -53.106
1517.9000, -53.083
1517.9200, -53.055
1517.9400, -53.044
1517.9600, -53.014
1517.9800, -52.997
1518.0000, -52.985
1518.0200, -52.972
1518.0400, -52.943
1518.0600, -52.927
1518.0800, -52.914
1518.1000, -52.877
1518.1200, -52.867
1518.1400, -52.832
1518.1600, -52.810
1518.1800, -52.785
1518.2000, -52.771
1518.2200, -52.749
1518.2400, -52.735
1518.2600, -52.717
1518.2800, -52.691
1518.3000, -52.671
1518.3200, -52.645
1518.3400, -52.626
1518.3600, -52.600
1518.3800, -52.592
1518.4000, -52.571
1518.4200, -52.542
1518.4400, -52.537
1518.4600, -52.501
1518.4800, -52.477
1518.5000, -52.459
1518.5200, -52.427
1518.5400, -52.400
1518.5600, -52.376
1518.5800, -52.350
1518.6000, -52.328
1518.6200, -52.317
1518.6400, -52.283
1518.6600, -52.276
1518.6800, -52.243
1518.7000, -52.221
1518.7200, -52.207
1518.7400, -52.166
1518.7600, -52.150
1518.7800, -52.123
1518.8000, -52.108
1518.8200, -52.095
1518.8400, -52.054
1518.8600, -52.038
1518.8800, -52.010
1518.9000, -51.993
1518.9200, -51.972
1518.9400, -51.948
1518.9600, -51.928
1518.9800, -51.900
1519.0000, -51.873
1519.0200, -51.850
1519.0400, -51.832
1519.0600, -51.818
1519.0800, -51.790
1519.1000, -51.770
1519.1200, -51.750
1519.1400, -51.711
1519.1600, -51.694
1519.1800, -51.666
1519.2000, -51.635
1519.2200, -51.603
1519.2400, -51.580
1519.2600, -51.558
1519.2800, -51.529
1519.3000, -51.495
1519.3200, -51.491
1519.3400, -51.454
1519.3600, -51.417
1519.3800, -51.406
1519.4000, -51.372
1519.4200, -51.348
1519.4400, -51.323
1519.4600, -51.287
1519.4800, -51.257
1519.5000, -51.240
1519.5200, -51.208
1519.5400, -51.190
1519.5600, -51.167
1519.5800, -51.127
1519.6000, -51.115
1519.6200, -51.076
1519.6400, -51.046
1519.6600, -51.008
1519.6800, -50.983
1519.7000, -50.958
1519.7200, -50.937
1519.7400, -50.906
1519.7600, -50.899
1519.7800, -50.854
1519.8000, -50.831
1519.8200, -50.796
1519.8400, -50.779
1519.8600, -50.750
1519.8800, -50.720
1519.9000, -50.701
1519.9200, -50.666
1519.9400, -50.629
1519.9600, -50.606
1519.9800, -50.578
1520.0000, -50.559
1520.0200, -50.525
1520.0400, -50.485
1520.0600, -50.454
1520.0800, -50.427
1520.1000, -50.412
1520.1200, -50.377
1520.1400, -50.341
1520.1600, -50.297
1520.1800, -50.280
1520.2000, -50.253
1520.2200, -50.224
1520.2400, -50.187
1520.2600, -50.180
1520.2800, -50.130
1520.3000, -50.107
1520.3200, -50.077
1520.3400, -50.035
1520.3600, -50.003
1520.3800, -49.980
1520.4000, -49.939
1520.4200, -49.907
1520.4400, -49.879
1520.4600, -49.839
1520.4800, -49.819
1520.5000, -49.789
1520.5200, -49.744
1520.5400, -49.730
1520.5600, -49.686
1520.5800, -49.641
1520.6000, -49.611
1520.6200, -49.584
