70BCSV 	
// AQ6370B OPTICAL SPECTRUM ANALYZER //                 
25
"CTRWL",1550.000000
"SPAN", 100.000000
"START WL",1500.000000
"STOP WL",1600.000000
"WLFREQ", 0
"REFL",-28.8
"LSCL", 5.0
"RESLN",0.100
"AVG",   1
"SMPLAUTO",      0
"SMPL",       5001
"SMPLINTVL",0.0200
"HIGH1"
"MEAS"
"LSUNT",0
"NMSKH","OFF"
"RESCOR",0
"RESPARM", 9050
"FREQPARM", 9050






"[TRACE DATA]"
1500.0000, -61.813
1500.0200, -61.806
1500.0400, -61.789
1500.0600, -61.799
1500.0800, -61.772
1500.1000, -61.782
1500.1200, -61.758
1500.1400, -61.752
1500.1600, -61.789
1500.1800, -61.765
1500.2000, -61.812
1500.2200, -61.698
1500.2400, -61.746
1500.2600, -61.725
1500.2800, -61.756
1500.3000, -61.708
1500.3200, -61.724
1500.3400, -61.732
1500.3600, -61.711
1500.3800, -61.723
1500.4000, -61.731
1500.4200, -61.674
1500.4400, -61.734
1500.4600, -61.682
1500.4800, -61.652
1500.5000, -61.673
1500.5200, -61.659
1500.5400, -61.649
1500.5600, -61.665
1500.5800, -61.665
1500.6000, -61.620
1500.6200, -61.617
1500.6400, -61.650
1500.6600, -61.626
1500.6800, -61.630
1500.7000, -61.600
1500.7200, -61.607
1500.7400, -61.626
1500.7600, -61.601
1500.7800, -61.594
1500.8000, -61.582
1500.8200, -61.593
1500.8400, -61.589
1500.8600, -61.620
1500.8800, -61.587
1500.9000, -61.542
1500.9200, -61.525
1500.9400, -61.548
1500.9600, -61.574
1500.9800, -61.512
1501.0000, -61.512
1501.0200, -61.518
1501.0400, -61.555
1501.0600, -61.470
1501.0800, -61.508
1501.1000, -61.482
1501.1200, -61.535
1501.1400, -61.493
1501.1600, -61.471
1501.1800, -61.518
1501.2000, -61.479
1501.2200, -61.478
1501.2400, -61.421
1501.2600, -61.455
1501.2800, -61.435
1501.3000, -61.450
1501.3200, -61.454
1501.3400, -61.427
1501.3600, -61.421
1501.3800, -61.419
1501.4000, -61.410
1501.4200, -61.430
1501.4400, -61.387
1501.4600, -61.378
1501.4800, -61.376
1501.5000, -61.415
1501.5200, -61.374
1501.5400, -61.351
1501.5600, -61.422
1501.5800, -61.302
1501.6000, -61.345
1501.6200, -61.374
1501.6400, -61.327
1501.6600, -61.337
1501.6800, -61.357
1501.7000, -61.295
1501.7200, -61.322
1501.7400, -61.358
1501.7600, -61.290
1501.7800, -61.307
1501.8000, -61.290
1501.8200, -61.335
1501.8400, -61.267
1501.8600, -61.284
1501.8800, -61.291
1501.9000, -61.339
1501.9200, -61.314
1501.9400, -61.239
1501.9600, -61.291
1501.9800, -61.222
1502.0000, -61.219
1502.0200, -61.283
1502.0400, -61.220
1502.0600, -61.259
1502.0800, -61.238
1502.1000, -61.233
1502.1200, -61.219
1502.1400, -61.217
1502.1600, -61.210
1502.1800, -61.183
1502.2000, -61.193
1502.2200, -61.172
1502.2400, -61.179
1502.2600, -61.145
1502.2800, -61.139
1502.3000, -61.199
1502.3200, -61.135
1502.3400, -61.134
1502.3600, -61.140
1502.3800, -61.113
1502.4000, -61.112
1502.4200, -61.106
1502.4400, -61.103
1502.4600, -61.110
1502.4800, -61.086
1502.5000, -61.080
1502.5200, -61.080
1502.5400, -61.062
1502.5600, -61.051
1502.5800, -61.049
1502.6000, -61.032
1502.6200, -61.035
1502.6400, -61.049
1502.6600, -61.009
1502.6800, -61.018
1502.7000, -61.030
1502.7200, -61.014
1502.7400, -61.012
1502.7600, -61.013
1502.7800, -61.014
1502.8000, -60.990
1502.8200, -60.979
1502.8400, -60.957
1502.8600, -60.991
1502.8800, -60.943
1502.9000, -60.950
1502.9200, -60.955
1502.9400, -60.930
1502.9600, -60.941
1502.9800, -60.922
1503.0000, -60.913
1503.0200, -60.910
1503.0400, -60.905
1503.0600, -60.895
1503.0800, -60.909
1503.1000, -60.899
1503.1200, -60.863
1503.1400, -60.866
1503.1600, -60.885
1503.1800, -60.860
1503.2000, -60.854
1503.2200, -60.854
1503.2400, -60.833
1503.2600, -60.828
1503.2800, -60.840
1503.3000, -60.799
1503.3200, -60.815
1503.3400, -60.794
1503.3600, -60.821
1503.3800, -60.783
1503.4000, -60.803
1503.4200, -60.765
1503.4400, -60.794
1503.4600, -60.748
1503.4800, -60.767
1503.5000, -60.763
1503.5200, -60.735
1503.5400, -60.734
1503.5600, -60.718
1503.5800, -60.708
1503.6000, -60.713
1503.6200, -60.731
1503.6400, -60.686
1503.6600, -60.701
1503.6800, -60.708
1503.7000, -60.683
1503.7200, -60.681
1503.7400, -60.688
1503.7600, -60.645
1503.7800, -60.638
1503.8000, -60.669
1503.8200, -60.646
1503.8400, -60.644
1503.8600, -60.636
1503.8800, -60.677
1503.9000, -60.605
1503.9200, -60.623
1503.9400, -60.588
1503.9600, -60.596
1503.9800, -60.572
1504.0000, -60.599
1504.0200, -60.607
1504.0400, -60.572
1504.0600, -60.589
1504.0800, -60.563
1504.1000, -60.566
1504.1200, -60.535
1504.1400, -60.501
1504.1600, -60.517
1504.1800, -60.517
1504.2000, -60.543
1504.2200, -60.486
1504.2400, -60.474
1504.2600, -60.482
1504.2800, -60.455
1504.3000, -60.470
1504.3200, -60.471
1504.3400, -60.459
1504.3600, -60.435
1504.3800, -60.455
1504.4000, -60.430
1504.4200, -60.418
1504.4400, -60.405
1504.4600, -60.401
1504.4800, -60.399
1504.5000, -60.382
1504.5200, -60.384
1504.5400, -60.371
1504.5600, -60.361
1504.5800, -60.353
1504.6000, -60.358
1504.6200, -60.343
1504.6400, -60.331
1504.6600, -60.334
1504.6800, -60.331
1504.7000, -60.325
1504.7200, -60.316
1504.7400, -60.302
1504.7600, -60.318
1504.7800, -60.303
1504.8000, -60.311
1504.8200, -60.273
1504.8400, -60.289
1504.8600, -60.268
1504.8800, -60.251
1504.9000, -60.226
1504.9200, -60.233
1504.9400, -60.248
1504.9600, -60.206
1504.9800, -60.231
1505.0000, -60.205
1505.0200, -60.210
1505.0400, -60.198
1505.0600, -60.195
1505.0800, -60.185
1505.1000, -60.186
1505.1200, -60.160
1505.1400, -60.153
1505.1600, -60.147
1505.1800, -60.141
1505.2000, -60.128
1505.2200, -60.145
1505.2400, -60.134
1505.2600, -60.131
1505.2800, -60.090
1505.3000, -60.081
1505.3200, -60.071
1505.3400, -60.081
1505.3600, -60.052
1505.3800, -60.098
1505.4000, -60.034
1505.4200, -60.041
1505.4400, -60.047
1505.4600, -60.011
1505.4800, -60.049
1505.5000, -60.006
1505.5200, -59.985
1505.5400, -60.026
1505.5600, -59.966
1505.5800, -59.971
1505.6000, -60.013
1505.6200, -59.972
1505.6400, -59.978
1505.6600, -59.956
1505.6800, -59.933
1505.7000, -59.965
1505.7200, -59.937
1505.7400, -59.923
1505.7600, -59.916
1505.7800, -59.887
1505.8000, -59.907
1505.8200, -59.909
1505.8400, -59.883
1505.8600, -59.870
1505.8800, -59.855
1505.9000, -59.869
1505.9200, -59.875
1505.9400, -59.853
1505.9600, -59.822
1505.9800, -59.857
1506.0000, -59.837
1506.0200, -59.805
1506.0400, -59.825
1506.0600, -59.802
1506.0800, -59.797
1506.1000, -59.808
1506.1200, -59.767
1506.1400, -59.771
1506.1600, -59.778
1506.1800, -59.756
1506.2000, -59.750
1506.2200, -59.734
1506.2400, -59.737
1506.2600, -59.724
1506.2800, -59.717
1506.3000, -59.716
1506.3200, -59.691
1506.3400, -59.725
1506.3600, -59.662
1506.3800, -59.702
1506.4000, -59.685
1506.4200, -59.648
1506.4400, -59.645
1506.4600, -59.619
1506.4800, -59.667
1506.5000, -59.621
1506.5200, -59.585
1506.5400, -59.610
1506.5600, -59.610
1506.5800, -59.613
1506.6000, -59.578
1506.6200, -59.585
1506.6400, -59.580
1506.6600, -59.565
1506.6800, -59.558
1506.7000, -59.581
1506.7200, -59.532
1506.7400, -59.556
1506.7600, -59.554
1506.7800, -59.498
1506.8000, -59.507
1506.8200, -59.503
1506.8400, -59.493
1506.8600, -59.471
1506.8800, -59.485
1506.9000, -59.466
1506.9200, -59.458
1506.9400, -59.445
1506.9600, -59.443
1506.9800, -59.442
1507.0000, -59.426
1507.0200, -59.427
1507.0400, -59.412
1507.0600, -59.424
1507.0800, -59.411
1507.1000, -59.388
1507.1200, -59.371
1507.1400, -59.386
1507.1600, -59.379
1507.1800, -59.372
1507.2000, -59.324
1507.2200, -59.355
1507.2400, -59.357
1507.2600, -59.347
1507.2800, -59.329
1507.3000, -59.328
1507.3200, -59.282
1507.3400, -59.300
1507.3600, -59.283
1507.3800, -59.261
1507.4000, -59.259
1507.4200, -59.244
1507.4400, -59.260
1507.4600, -59.247
1507.4800, -59.238
1507.5000, -59.230
1507.5200, -59.207
1507.5400, -59.216
1507.5600, -59.203
1507.5800, -59.189
1507.6000, -59.192
1507.6200, -59.180
1507.6400, -59.160
1507.6600, -59.166
1507.6800, -59.153
1507.7000, -59.167
1507.7200, -59.134
1507.7400, -59.117
1507.7600, -59.129
1507.7800, -59.122
1507.8000, -59.103
1507.8200, -59.087
1507.8400, -59.095
1507.8600, -59.077
1507.8800, -59.072
1507.9000, -59.063
1507.9200, -59.054
1507.9400, -59.044
1507.9600, -59.036
1507.9800, -59.019
1508.0000, -59.020
1508.0200, -59.022
1508.0400, -59.000
1508.0600, -58.994
1508.0800, -58.992
1508.1000, -58.982
1508.1200, -58.978
1508.1400, -58.956
1508.1600, -58.935
1508.1800, -58.949
1508.2000, -58.960
1508.2200, -58.917
1508.2400, -58.928
1508.2600, -58.901
1508.2800, -58.925
1508.3000, -58.913
1508.3200, -58.889
1508.3400, -58.879
1508.3600, -58.876
1508.3800, -58.843
1508.4000, -58.840
1508.4200, -58.846
1508.4400, -58.839
1508.4600, -58.840
1508.4800, -58.815
1508.5000, -58.806
1508.5200, -58.810
1508.5400, -58.805
1508.5600, -58.796
1508.5800, -58.785
1508.6000, -58.788
1508.6200, -58.776
1508.6400, -58.742
1508.6600, -58.750
1508.6800, -58.748
1508.7000, -58.739
1508.7200, -58.722
1508.7400, -58.695
1508.7600, -58.711
1508.7800, -58.693
1508.8000, -58.698
1508.8200, -58.683
1508.8400, -58.696
1508.8600, -58.673
1508.8800, -58.654
1508.9000, -58.647
1508.9200, -58.627
1508.9400, -58.620
1508.9600, -58.611
1508.9800, -58.623
1509.0000, -58.611
1509.0200, -58.585
1509.0400, -58.584
1509.0600, -58.569
1509.0800, -58.569
1509.1000, -58.575
1509.1200, -58.567
1509.1400, -58.556
1509.1600, -58.516
1509.1800, -58.520
1509.2000, -58.517
1509.2200, -58.500
1509.2400, -58.483
1509.2600, -58.494
1509.2800, -58.467
1509.3000, -58.461
1509.3200, -58.445
1509.3400, -58.434
1509.3600, -58.445
1509.3800, -58.409
1509.4000, -58.426
1509.4200, -58.411
1509.4400, -58.381
1509.4600, -58.394
1509.4800, -58.371
1509.5000, -58.363
1509.5200, -58.369
1509.5400, -58.369
1509.5600, -58.340
1509.5800, -58.345
1509.6000, -58.346
1509.6200, -58.312
1509.6400, -58.310
1509.6600, -58.303
1509.6800, -58.286
1509.7000, -58.283
1509.7200, -58.283
1509.7400, -58.269
1509.7600, -58.262
1509.7800, -58.254
1509.8000, -58.250
1509.8200, -58.230
1509.8400, -58.235
1509.8600, -58.218
1509.8800, -58.195
1509.9000, -58.192
1509.9200, -58.182
1509.9400, -58.179
1509.9600, -58.183
1509.9800, -58.166
1510.0000, -58.151
1510.0200, -58.148
1510.0400, -58.129
1510.0600, -58.128
1510.0800, -58.100
1510.1000, -58.099
1510.1200, -58.091
1510.1400, -58.075
1510.1600, -58.075
1510.1800, -58.055
1510.2000, -58.044
1510.2200, -58.028
1510.2400, -58.027
1510.2600, -58.005
1510.2800, -58.001
1510.3000, -57.986
1510.3200, -57.980
1510.3400, -57.966
1510.3600, -57.980
1510.3800, -57.940
1510.4000, -57.941
1510.4200, -57.938
1510.4400, -57.920
1510.4600, -57.914
1510.4800, -57.897
1510.5000, -57.899
1510.5200, -57.885
1510.5400, -57.881
1510.5600, -57.849
1510.5800, -57.856
1510.6000, -57.850
1510.6200, -57.832
1510.6400, -57.808
1510.6600, -57.799
1510.6800, -57.794
1510.7000, -57.798
1510.7200, -57.767
1510.7400, -57.768
1510.7600, -57.761
1510.7800, -57.741
1510.8000, -57.743
1510.8200, -57.717
1510.8400, -57.716
1510.8600, -57.711
1510.8800, -57.685
1510.9000, -57.677
1510.9200, -57.676
1510.9400, -57.670
1510.9600, -57.645
1510.9800, -57.641
1511.0000, -57.617
1511.0200, -57.626
1511.0400, -57.598
1511.0600, -57.590
1511.0800, -57.572
1511.1000, -57.570
1511.1200, -57.560
1511.1400, -57.518
1511.1600, -57.533
1511.1800, -57.520
1511.2000, -57.514
1511.2200, -57.488
1511.2400, -57.498
1511.2600, -57.463
1511.2800, -57.461
1511.3000, -57.468
1511.3200, -57.434
1511.3400, -57.431
1511.3600, -57.430
1511.3800, -57.415
1511.4000, -57.406
1511.4200, -57.396
1511.4400, -57.381
1511.4600, -57.361
1511.4800, -57.371
1511.5000, -57.347
1511.5200, -57.326
1511.5400, -57.317
1511.5600, -57.308
1511.5800, -57.289
1511.6000, -57.282
1511.6200, -57.293
1511.6400, -57.267
1511.6600, -57.267
1511.6800, -57.243
1511.7000, -57.240
1511.7200, -57.234
1511.7400, -57.203
1511.7600, -57.200
1511.7800, -57.182
1511.8000, -57.166
1511.8200, -57.162
1511.8400, -57.172
1511.8600, -57.126
1511.8800, -57.126
1511.9000, -57.115
1511.9200, -57.112
1511.9400, -57.097
1511.9600, -57.080
1511.9800, -57.075
1512.0000, -57.054
1512.0200, -57.050
1512.0400, -57.044
1512.0600, -57.029
1512.0800, -57.000
1512.1000, -56.992
1512.1200, -57.000
1512.1400, -56.977
1512.1600, -56.962
1512.1800, -56.945
1512.2000, -56.942
1512.2200, -56.936
1512.2400, -56.921
1512.2600, -56.911
1512.2800, -56.895
1512.3000, -56.906
1512.3200, -56.879
1512.3400, -56.875
1512.3600, -56.844
1512.3800, -56.844
1512.4000, -56.843
1512.4200, -56.836
1512.4400, -56.817
1512.4600, -56.809
1512.4800, -56.797
1512.5000, -56.771
1512.5200, -56.764
1512.5400, -56.744
1512.5600, -56.735
1512.5800, -56.728
1512.6000, -56.732
1512.6200, -56.695
1512.6400, -56.695
1512.6600, -56.692
1512.6800, -56.673
1512.7000, -56.668
1512.7200, -56.641
1512.7400, -56.640
1512.7600, -56.623
1512.7800, -56.615
1512.8000, -56.595
1512.8200, -56.593
1512.8400, -56.566
1512.8600, -56.563
1512.8800, -56.569
1512.9000, -56.541
1512.9200, -56.546
1512.9400, -56.528
1512.9600, -56.503
1512.9800, -56.489
1513.0000, -56.493
1513.0200, -56.475
1513.0400, -56.465
1513.0600, -56.454
1513.0800, -56.423
1513.1000, -56.419
1513.1200, -56.409
1513.1400, -56.397
1513.1600, -56.381
1513.1800, -56.376
1513.2000, -56.369
1513.2200, -56.355
1513.2400, -56.345
1513.2600, -56.335
1513.2800, -56.313
1513.3000, -56.306
1513.3200, -56.293
1513.3400, -56.286
1513.3600, -56.271
1513.3800, -56.272
1513.4000, -56.243
1513.4200, -56.255
1513.4400, -56.217
1513.4600, -56.210
1513.4800, -56.195
1513.5000, -56.181
1513.5200, -56.180
1513.5400, -56.163
1513.5600, -56.158
1513.5800, -56.131
1513.6000, -56.123
1513.6200, -56.117
1513.6400, -56.102
1513.6600, -56.085
1513.6800, -56.070
1513.7000, -56.072
1513.7200, -56.038
1513.7400, -56.040
1513.7600, -56.027
1513.7800, -56.002
1513.8000, -56.008
1513.8200, -55.985
1513.8400, -55.979
1513.8600, -55.974
1513.8800, -55.944
1513.9000, -55.939
1513.9200, -55.917
1513.9400, -55.904
1513.9600, -55.907
1513.9800, -55.867
1514.0000, -55.868
1514.0200, -55.855
1514.0400, -55.845
1514.0600, -55.820
1514.0800, -55.813
1514.1000, -55.792
1514.1200, -55.790
1514.1400, -55.781
1514.1600, -55.776
1514.1800, -55.757
1514.2000, -55.740
1514.2200, -55.730
1514.2400, -55.713
1514.2600, -55.698
1514.2800, -55.697
1514.3000, -55.664
1514.3200, -55.678
1514.3400, -55.657
1514.3600, -55.626
1514.3800, -55.619
1514.4000, -55.603
1514.4200, -55.598
1514.4400, -55.572
1514.4600, -55.575
1514.4800, -55.560
1514.5000, -55.550
1514.5200, -55.526
1514.5400, -55.520
1514.5600, -55.512
1514.5800, -55.495
1514.6000, -55.480
1514.6200, -55.473
1514.6400, -55.453
1514.6600, -55.439
1514.6800, -55.431
1514.7000, -55.406
1514.7200, -55.404
1514.7400, -55.387
1514.7600, -55.378
1514.7800, -55.363
1514.8000, -55.346
1514.8200, -55.333
1514.8400, -55.319
1514.8600, -55.305
1514.8800, -55.285
1514.9000, -55.288
1514.9200, -55.255
1514.9400, -55.240
1514.9600, -55.241
1514.9800, -55.217
1515.0000, -55.203
1515.0200, -55.176
1515.0400, -55.160
1515.0600, -55.167
1515.0800, -55.140
1515.1000, -55.128
1515.1200, -55.118
1515.1400, -55.105
1515.1600, -55.094
1515.1800, -55.074
1515.2000, -55.055
1515.2200, -55.041
1515.2400, -55.042
1515.2600, -55.028
1515.2800, -54.996
1515.3000, -54.989
1515.3200, -54.977
1515.3400, -54.963
1515.3600, -54.936
1515.3800, -54.925
1515.4000, -54.926
1515.4200, -54.919
1515.4400, -54.897
1515.4600, -54.872
1515.4800, -54.853
1515.5000, -54.836
1515.5200, -54.837
1515.5400, -54.816
1515.5600, -54.803
1515.5800, -54.788
1515.6000, -54.778
1515.6200, -54.760
1515.6400, -54.739
1515.6600, -54.734
1515.6800, -54.724
1515.7000, -54.707
1515.7200, -54.690
1515.7400, -54.678
1515.7600, -54.658
1515.7800, -54.653
1515.8000, -54.622
1515.8200, -54.606
1515.8400, -54.597
1515.8600, -54.578
1515.8800, -54.557
1515.9000, -54.561
1515.9200, -54.540
1515.9400, -54.524
1515.9600, -54.494
1515.9800, -54.468
1516.0000, -54.471
1516.0200, -54.451
1516.0400, -54.433
1516.0600, -54.424
1516.0800, -54.409
1516.1000, -54.400
1516.1200, -54.372
1516.1400, -54.351
1516.1600, -54.340
1516.1800, -54.325
1516.2000, -54.310
1516.2200, -54.297
1516.2400, -54.279
1516.2600, -54.268
1516.2800, -54.249
1516.3000, -54.231
1516.3200, -54.219
1516.3400, -54.213
1516.3600, -54.184
1516.3800, -54.173
1516.4000, -54.161
1516.4200, -54.148
1516.4400, -54.115
1516.4600, -54.107
1516.4800, -54.096
1516.5000, -54.072
1516.5200, -54.053
1516.5400, -54.041
1516.5600, -54.019
1516.5800, -54.004
1516.6000, -53.990
1516.6200, -53.970
1516.6400, -53.949
1516.6600, -53.936
1516.6800, -53.927
1516.7000, -53.911
1516.7200, -53.887
1516.7400, -53.866
1516.7600, -53.849
1516.7800, -53.835
1516.8000, -53.821
1516.8200, -53.794
1516.8400, -53.790
1516.8600, -53.761
1516.8800, -53.738
1516.9000, -53.721
1516.9200, -53.701
1516.9400, -53.683
1516.9600, -53.673
1516.9800, -53.652
1517.0000, -53.633
1517.0200, -53.622
1517.0400, -53.603
1517.0600, -53.584
1517.0800, -53.561
1517.1000, -53.545
1517.1200, -53.525
1517.1400, -53.521
1517.1600, -53.498
1517.1800, -53.476
1517.2000, -53.459
1517.2200, -53.438
1517.2400, -53.405
1517.2600, -53.395
1517.2800, -53.382
1517.3000, -53.355
1517.3200, -53.354
1517.3400, -53.333
1517.3600, -53.303
1517.3800, -53.295
1517.4000, -53.279
1517.4200, -53.264
1517.4400, -53.240
1517.4600, -53.210
1517.4800, -53.200
1517.5000, -53.180
1517.5200, -53.167
1517.5400, -53.150
1517.5600, -53.128
1517.5800, -53.097
1517.6000, -53.093
1517.6200, -53.066
1517.6400, -53.056
1517.6600, -53.021
1517.6800, -52.999
1517.7000, -52.977
1517.7200, -52.956
1517.7400, -52.944
1517.7600, -52.924
1517.7800, -52.913
1517.8000, -52.874
1517.8200, -52.851
1517.8400, -52.830
1517.8600, -52.817
1517.8800, -52.790
1517.9000, -52.770
1517.9200, -52.753
1517.9400, -52.737
1517.9600, -52.720
1517.9800, -52.698
1518.0000, -52.681
1518.0200, -52.658
1518.0400, -52.634
1518.0600, -52.614
1518.0800, -52.600
1518.1000, -52.580
1518.1200, -52.554
1518.1400, -52.534
1518.1600, -52.505
1518.1800, -52.481
1518.2000, -52.462
1518.2200, -52.444
1518.2400, -52.426
1518.2600, -52.402
1518.2800, -52.394
1518.3000, -52.359
1518.3200, -52.343
1518.3400, -52.325
1518.3600, -52.301
1518.3800, -52.284
1518.4000, -52.262
1518.4200, -52.235
1518.4400, -52.217
1518.4600, -52.196
1518.4800, -52.166
1518.5000, -52.145
1518.5200, -52.124
1518.5400, -52.098
1518.5600, -52.073
1518.5800, -52.052
1518.6000, -52.032
1518.6200, -52.000
1518.6400, -51.978
1518.6600, -51.954
1518.6800, -51.946
1518.7000, -51.905
1518.7200, -51.900
1518.7400, -51.864
1518.7600, -51.833
1518.7800, -51.806
1518.8000, -51.788
1518.8200, -51.761
1518.8400, -51.739
1518.8600, -51.722
1518.8800, -51.704
1518.9000, -51.681
1518.9200, -51.649
1518.9400, -51.634
1518.9600, -51.598
1518.9800, -51.579
1519.0000, -51.561
1519.0200, -51.544
1519.0400, -51.513
1519.0600, -51.493
1519.0800, -51.460
1519.1000, -51.438
1519.1200, -51.416
1519.1400, -51.396
1519.1600, -51.380
1519.1800, -51.344
1519.2000, -51.317
1519.2200, -51.294
1519.2400, -51.250
1519.2600, -51.232
1519.2800, -51.217
1519.3000, -51.187
1519.3200, -51.151
1519.3400, -51.130
1519.3600, -51.108
1519.3800, -51.082
1519.4000, -51.062
1519.4200, -51.027
1519.4400, -51.012
1519.4600, -50.973
1519.4800, -50.951
1519.5000, -50.920
1519.5200, -50.898
1519.5400, -50.867
1519.5600, -50.825
1519.5800, -50.807
1519.6000, -50.775
1519.6200, -50.757
1519.6400, -50.723
1519.6600, -50.708
1519.6800, -50.664
1519.7000, -50.632
1519.7200, -50.608
1519.7400, -50.579
1519.7600, -50.567
1519.7800, -50.544
1519.8000, -50.497
1519.8200, -50.481
1519.8400, -50.449
1519.8600, -50.424
1519.8800, -50.392
1519.9000, -50.365
1519.9200, -50.341
1519.9400, -50.304
1519.9600, -50.276
1519.9800, -50.240
1520.0000, -50.222
1520.0200, -50.192
1520.0400, -50.167
1520.0600, -50.131
1520.0800, -50.115
1520.1000, -50.078
1520.1200, -50.043
1520.1400, -50.016
1520.1600, -49.977
1520.1800, -49.949
1520.2000, -49.920
1520.2200, -49.887
1520.2400, -49.855
1520.2600, -49.820
1520.2800, -49.791
1520.3000, -49.781
1520.3200, -49.739
1520.3400, -49.703
1520.3600, -49.671
1520.3800, -49.640
1520.4000, -49.596
1520.4200, -49.581
1520.4400, -49.548
1520.4600, -49.517
1520.4800, -49.482
1520.5000, -49.439
1520.5200, -49.408
1520.5400, -49.375
1520.5600, -49.350
1520.5800, -49.307
1520.6000, -49.292
1520.6200, -49.245
