70BCSV 	
// AQ6370B OPTICAL SPECTRUM ANALYZER //                 
25
"CTRWL",1550.000000
"SPAN", 100.000000
"START WL",1500.000000
"STOP WL",1600.000000
"WLFREQ", 0
"REFL",-28.8
"LSCL", 5.0
"RESLN",0.100
"AVG",   1
"SMPLAUTO",      0
"SMPL",       5001
"SMPLINTVL",0.0200
"HIGH1"
"MEAS"
"LSUNT",0
"NMSKH","OFF"
"RESCOR",0
"RESPARM", 9050
"FREQPARM", 9050






"[TRACE DATA]"
1500.0000, -61.770
1500.0200, -61.806
1500.0400, -61.768
1500.0600, -61.765
1500.0800, -61.795
1500.1000, -61.779
1500.1200, -61.722
1500.1400, -61.741
1500.1600, -61.735
1500.1800, -61.771
1500.2000, -61.701
1500.2200, -61.704
1500.2400, -61.728
1500.2600, -61.744
1500.2800, -61.726
1500.3000, -61.684
1500.3200, -61.702
1500.3400, -61.710
1500.3600, -61.696
1500.3800, -61.678
1500.4000, -61.677
1500.4200, -61.676
1500.4400, -61.687
1500.4600, -61.669
1500.4800, -61.667
1500.5000, -61.649
1500.5200, -61.634
1500.5400, -61.658
1500.5600, -61.628
1500.5800, -61.608
1500.6000, -61.630
1500.6200, -61.614
1500.6400, -61.616
1500.6600, -61.589
1500.6800, -61.615
1500.7000, -61.597
1500.7200, -61.595
1500.7400, -61.566
1500.7600, -61.642
1500.7800, -61.584
1500.8000, -61.581
1500.8200, -61.577
1500.8400, -61.542
1500.8600, -61.525
1500.8800, -61.516
1500.9000, -61.558
1500.9200, -61.529
1500.9400, -61.495
1500.9600, -61.532
1500.9800, -61.532
1501.0000, -61.499
1501.0200, -61.517
1501.0400, -61.491
1501.0600, -61.489
1501.0800, -61.486
1501.1000, -61.459
1501.1200, -61.509
1501.1400, -61.448
1501.1600, -61.462
1501.1800, -61.449
1501.2000, -61.475
1501.2200, -61.444
1501.2400, -61.445
1501.2600, -61.447
1501.2800, -61.428
1501.3000, -61.423
1501.3200, -61.422
1501.3400, -61.441
1501.3600, -61.389
1501.3800, -61.407
1501.4000, -61.386
1501.4200, -61.424
1501.4400, -61.358
1501.4600, -61.347
1501.4800, -61.397
1501.5000, -61.342
1501.5200, -61.396
1501.5400, -61.345
1501.5600, -61.333
1501.5800, -61.344
1501.6000, -61.341
1501.6200, -61.354
1501.6400, -61.340
1501.6600, -61.316
1501.6800, -61.323
1501.7000, -61.325
1501.7200, -61.323
1501.7400, -61.314
1501.7600, -61.258
1501.7800, -61.289
1501.8000, -61.290
1501.8200, -61.293
1501.8400, -61.289
1501.8600, -61.261
1501.8800, -61.266
1501.9000, -61.272
1501.9200, -61.285
1501.9400, -61.240
1501.9600, -61.257
1501.9800, -61.218
1502.0000, -61.258
1502.0200, -61.180
1502.0400, -61.210
1502.0600, -61.211
1502.0800, -61.186
1502.1000, -61.160
1502.1200, -61.189
1502.1400, -61.170
1502.1600, -61.167
1502.1800, -61.153
1502.2000, -61.204
1502.2200, -61.140
1502.2400, -61.140
1502.2600, -61.147
1502.2800, -61.125
1502.3000, -61.137
1502.3200, -61.140
1502.3400, -61.113
1502.3600, -61.085
1502.3800, -61.082
1502.4000, -61.073
1502.4200, -61.120
1502.4400, -61.071
1502.4600, -61.095
1502.4800, -61.027
1502.5000, -61.065
1502.5200, -61.058
1502.5400, -61.051
1502.5600, -61.050
1502.5800, -61.007
1502.6000, -61.035
1502.6200, -61.001
1502.6400, -61.039
1502.6600, -61.002
1502.6800, -60.985
1502.7000, -61.010
1502.7200, -61.015
1502.7400, -60.971
1502.7600, -60.971
1502.7800, -60.985
1502.8000, -60.967
1502.8200, -60.945
1502.8400, -60.956
1502.8600, -60.947
1502.8800, -60.944
1502.9000, -60.925
1502.9200, -60.921
1502.9400, -60.917
1502.9600, -60.896
1502.9800, -60.901
1503.0000, -60.889
1503.0200, -60.886
1503.0400, -60.882
1503.0600, -60.872
1503.0800, -60.859
1503.1000, -60.885
1503.1200, -60.828
1503.1400, -60.877
1503.1600, -60.832
1503.1800, -60.825
1503.2000, -60.827
1503.2200, -60.827
1503.2400, -60.836
1503.2600, -60.798
1503.2800, -60.816
1503.3000, -60.831
1503.3200, -60.781
1503.3400, -60.753
1503.3600, -60.788
1503.3800, -60.808
1503.4000, -60.771
1503.4200, -60.748
1503.4400, -60.742
1503.4600, -60.734
1503.4800, -60.738
1503.5000, -60.770
1503.5200, -60.732
1503.5400, -60.695
1503.5600, -60.695
1503.5800, -60.687
1503.6000, -60.657
1503.6200, -60.697
1503.6400, -60.672
1503.6600, -60.691
1503.6800, -60.667
1503.7000, -60.657
1503.7200, -60.658
1503.7400, -60.651
1503.7600, -60.618
1503.7800, -60.640
1503.8000, -60.615
1503.8200, -60.652
1503.8400, -60.645
1503.8600, -60.613
1503.8800, -60.616
1503.9000, -60.608
1503.9200, -60.571
1503.9400, -60.565
1503.9600, -60.552
1503.9800, -60.589
1504.0000, -60.546
1504.0200, -60.569
1504.0400, -60.558
1504.0600, -60.540
1504.0800, -60.520
1504.1000, -60.524
1504.1200, -60.520
1504.1400, -60.540
1504.1600, -60.487
1504.1800, -60.494
1504.2000, -60.467
1504.2200, -60.478
1504.2400, -60.483
1504.2600, -60.466
1504.2800, -60.437
1504.3000, -60.437
1504.3200, -60.435
1504.3400, -60.444
1504.3600, -60.407
1504.3800, -60.436
1504.4000, -60.416
1504.4200, -60.382
1504.4400, -60.419
1504.4600, -60.366
1504.4800, -60.380
1504.5000, -60.375
1504.5200, -60.384
1504.5400, -60.378
1504.5600, -60.316
1504.5800, -60.355
1504.6000, -60.348
1504.6200, -60.318
1504.6400, -60.318
1504.6600, -60.316
1504.6800, -60.321
1504.7000, -60.338
1504.7200, -60.285
1504.7400, -60.283
1504.7600, -60.304
1504.7800, -60.280
1504.8000, -60.265
1504.8200, -60.256
1504.8400, -60.266
1504.8600, -60.261
1504.8800, -60.243
1504.9000, -60.209
1504.9200, -60.209
1504.9400, -60.218
1504.9600, -60.188
1504.9800, -60.208
1505.0000, -60.185
1505.0200, -60.200
1505.0400, -60.161
1505.0600, -60.154
1505.0800, -60.171
1505.1000, -60.152
1505.1200, -60.131
1505.1400, -60.140
1505.1600, -60.144
1505.1800, -60.108
1505.2000, -60.095
1505.2200, -60.116
1505.2400, -60.110
1505.2600, -60.088
1505.2800, -60.047
1505.3000, -60.100
1505.3200, -60.050
1505.3400, -60.060
1505.3600, -60.043
1505.3800, -60.024
1505.4000, -60.052
1505.4200, -60.047
1505.4400, -60.021
1505.4600, -60.014
1505.4800, -59.983
1505.5000, -60.011
1505.5200, -60.012
1505.5400, -59.979
1505.5600, -59.973
1505.5800, -59.976
1505.6000, -59.954
1505.6200, -59.950
1505.6400, -59.931
1505.6600, -59.922
1505.6800, -59.925
1505.7000, -59.958
1505.7200, -59.913
1505.7400, -59.887
1505.7600, -59.915
1505.7800, -59.883
1505.8000, -59.881
1505.8200, -59.880
1505.8400, -59.882
1505.8600, -59.867
1505.8800, -59.830
1505.9000, -59.822
1505.9200, -59.868
1505.9400, -59.818
1505.9600, -59.828
1505.9800, -59.815
1506.0000, -59.764
1506.0200, -59.804
1506.0400, -59.796
1506.0600, -59.782
1506.0800, -59.772
1506.1000, -59.789
1506.1200, -59.740
1506.1400, -59.754
1506.1600, -59.728
1506.1800, -59.707
1506.2000, -59.735
1506.2200, -59.713
1506.2400, -59.705
1506.2600, -59.707
1506.2800, -59.682
1506.3000, -59.673
1506.3200, -59.705
1506.3400, -59.678
1506.3600, -59.635
1506.3800, -59.693
1506.4000, -59.626
1506.4200, -59.645
1506.4400, -59.649
1506.4600, -59.613
1506.4800, -59.637
1506.5000, -59.609
1506.5200, -59.585
1506.5400, -59.606
1506.5600, -59.576
1506.5800, -59.593
1506.6000, -59.572
1506.6200, -59.566
1506.6400, -59.556
1506.6600, -59.534
1506.6800, -59.541
1506.7000, -59.527
1506.7200, -59.510
1506.7400, -59.511
1506.7600, -59.506
1506.7800, -59.503
1506.8000, -59.484
1506.8200, -59.476
1506.8400, -59.443
1506.8600, -59.473
1506.8800, -59.457
1506.9000, -59.438
1506.9200, -59.439
1506.9400, -59.450
1506.9600, -59.433
1506.9800, -59.413
1507.0000, -59.418
1507.0200, -59.409
1507.0400, -59.398
1507.0600, -59.367
1507.0800, -59.388
1507.1000, -59.392
1507.1200, -59.344
1507.1400, -59.352
1507.1600, -59.342
1507.1800, -59.336
1507.2000, -59.338
1507.2200, -59.306
1507.2400, -59.323
1507.2600, -59.307
1507.2800, -59.300
1507.3000, -59.299
1507.3200, -59.284
1507.3400, -59.262
1507.3600, -59.271
1507.3800, -59.233
1507.4000, -59.249
1507.4200, -59.230
1507.4400, -59.242
1507.4600, -59.229
1507.4800, -59.214
1507.5000, -59.199
1507.5200, -59.180
1507.5400, -59.188
1507.5600, -59.171
1507.5800, -59.196
1507.6000, -59.140
1507.6200, -59.142
1507.6400, -59.138
1507.6600, -59.145
1507.6800, -59.149
1507.7000, -59.095
1507.7200, -59.120
1507.7400, -59.113
1507.7600, -59.092
1507.7800, -59.082
1507.8000, -59.051
1507.8200, -59.062
1507.8400, -59.059
1507.8600, -59.052
1507.8800, -59.040
1507.9000, -59.018
1507.9200, -59.041
1507.9400, -59.019
1507.9600, -58.997
1507.9800, -59.006
1508.0000, -58.999
1508.0200, -58.993
1508.0400, -58.999
1508.0600, -58.967
1508.0800, -58.951
1508.1000, -58.960
1508.1200, -58.950
1508.1400, -58.922
1508.1600, -58.934
1508.1800, -58.915
1508.2000, -58.914
1508.2200, -58.888
1508.2400, -58.896
1508.2600, -58.874
1508.2800, -58.884
1508.3000, -58.891
1508.3200, -58.883
1508.3400, -58.874
1508.3600, -58.847
1508.3800, -58.829
1508.4000, -58.807
1508.4200, -58.825
1508.4400, -58.823
1508.4600, -58.788
1508.4800, -58.790
1508.5000, -58.787
1508.5200, -58.772
1508.5400, -58.768
1508.5600, -58.757
1508.5800, -58.756
1508.6000, -58.741
1508.6200, -58.745
1508.6400, -58.722
1508.6600, -58.729
1508.6800, -58.715
1508.7000, -58.717
1508.7200, -58.702
1508.7400, -58.698
1508.7600, -58.688
1508.7800, -58.664
1508.8000, -58.657
1508.8200, -58.656
1508.8400, -58.633
1508.8600, -58.645
1508.8800, -58.623
1508.9000, -58.611
1508.9200, -58.614
1508.9400, -58.597
1508.9600, -58.586
1508.9800, -58.587
1509.0000, -58.585
1509.0200, -58.552
1509.0400, -58.556
1509.0600, -58.549
1509.0800, -58.527
1509.1000, -58.537
1509.1200, -58.528
1509.1400, -58.510
1509.1600, -58.510
1509.1800, -58.486
1509.2000, -58.488
1509.2200, -58.474
1509.2400, -58.464
1509.2600, -58.452
1509.2800, -58.433
1509.3000, -58.447
1509.3200, -58.446
1509.3400, -58.431
1509.3600, -58.410
1509.3800, -58.417
1509.4000, -58.398
1509.4200, -58.394
1509.4400, -58.373
1509.4600, -58.376
1509.4800, -58.352
1509.5000, -58.352
1509.5200, -58.340
1509.5400, -58.321
1509.5600, -58.309
1509.5800, -58.299
1509.6000, -58.306
1509.6200, -58.294
1509.6400, -58.288
1509.6600, -58.285
1509.6800, -58.268
1509.7000, -58.257
1509.7200, -58.259
1509.7400, -58.237
1509.7600, -58.226
1509.7800, -58.213
1509.8000, -58.220
1509.8200, -58.217
1509.8400, -58.194
1509.8600, -58.186
1509.8800, -58.185
1509.9000, -58.155
1509.9200, -58.167
1509.9400, -58.146
1509.9600, -58.133
1509.9800, -58.138
1510.0000, -58.116
1510.0200, -58.107
1510.0400, -58.109
1510.0600, -58.091
1510.0800, -58.072
1510.1000, -58.072
1510.1200, -58.059
1510.1400, -58.050
1510.1600, -58.029
1510.1800, -58.041
1510.2000, -58.015
1510.2200, -58.011
1510.2400, -58.003
1510.2600, -57.996
1510.2800, -57.984
1510.3000, -57.973
1510.3200, -57.968
1510.3400, -57.955
1510.3600, -57.936
1510.3800, -57.928
1510.4000, -57.924
1510.4200, -57.915
1510.4400, -57.884
1510.4600, -57.881
1510.4800, -57.867
1510.5000, -57.860
1510.5200, -57.854
1510.5400, -57.851
1510.5600, -57.830
1510.5800, -57.825
1510.6000, -57.813
1510.6200, -57.801
1510.6400, -57.791
1510.6600, -57.777
1510.6800, -57.756
1510.7000, -57.757
1510.7200, -57.746
1510.7400, -57.734
1510.7600, -57.726
1510.7800, -57.724
1510.8000, -57.713
1510.8200, -57.689
1510.8400, -57.690
1510.8600, -57.676
1510.8800, -57.656
1510.9000, -57.661
1510.9200, -57.641
1510.9400, -57.629
1510.9600, -57.631
1510.9800, -57.613
1511.0000, -57.596
1511.0200, -57.595
1511.0400, -57.575
1511.0600, -57.536
1511.0800, -57.543
1511.1000, -57.535
1511.1200, -57.525
1511.1400, -57.520
1511.1600, -57.505
1511.1800, -57.500
1511.2000, -57.495
1511.2200, -57.469
1511.2400, -57.477
1511.2600, -57.474
1511.2800, -57.455
1511.3000, -57.419
1511.3200, -57.418
1511.3400, -57.392
1511.3600, -57.395
1511.3800, -57.383
1511.4000, -57.383
1511.4200, -57.349
1511.4400, -57.343
1511.4600, -57.341
1511.4800, -57.336
1511.5000, -57.327
1511.5200, -57.311
1511.5400, -57.289
1511.5600, -57.282
1511.5800, -57.281
1511.6000, -57.259
1511.6200, -57.238
1511.6400, -57.244
1511.6600, -57.219
1511.6800, -57.210
1511.7000, -57.203
1511.7200, -57.207
1511.7400, -57.173
1511.7600, -57.174
1511.7800, -57.157
1511.8000, -57.147
1511.8200, -57.132
1511.8400, -57.127
1511.8600, -57.109
1511.8800, -57.095
1511.9000, -57.085
1511.9200, -57.073
1511.9400, -57.066
1511.9600, -57.059
1511.9800, -57.033
1512.0000, -57.032
1512.0200, -57.021
1512.0400, -57.012
1512.0600, -56.990
1512.0800, -56.984
1512.1000, -56.980
1512.1200, -56.968
1512.1400, -56.945
1512.1600, -56.944
1512.1800, -56.939
1512.2000, -56.915
1512.2200, -56.916
1512.2400, -56.905
1512.2600, -56.894
1512.2800, -56.886
1512.3000, -56.844
1512.3200, -56.851
1512.3400, -56.842
1512.3600, -56.835
1512.3800, -56.815
1512.4000, -56.815
1512.4200, -56.804
1512.4400, -56.787
1512.4600, -56.761
1512.4800, -56.764
1512.5000, -56.753
1512.5200, -56.743
1512.5400, -56.725
1512.5600, -56.711
1512.5800, -56.702
1512.6000, -56.682
1512.6200, -56.660
1512.6400, -56.669
1512.6600, -56.652
1512.6800, -56.641
1512.7000, -56.629
1512.7200, -56.625
1512.7400, -56.607
1512.7600, -56.593
1512.7800, -56.589
1512.8000, -56.582
1512.8200, -56.569
1512.8400, -56.544
1512.8600, -56.542
1512.8800, -56.530
1512.9000, -56.511
1512.9200, -56.508
1512.9400, -56.500
1512.9600, -56.470
1512.9800, -56.470
1513.0000, -56.449
1513.0200, -56.451
1513.0400, -56.427
1513.0600, -56.423
1513.0800, -56.401
1513.1000, -56.402
1513.1200, -56.393
1513.1400, -56.378
1513.1600, -56.371
1513.1800, -56.361
1513.2000, -56.332
1513.2200, -56.336
1513.2400, -56.312
1513.2600, -56.304
1513.2800, -56.292
1513.3000, -56.289
1513.3200, -56.262
1513.3400, -56.254
1513.3600, -56.244
1513.3800, -56.228
1513.4000, -56.212
1513.4200, -56.200
1513.4400, -56.195
1513.4600, -56.186
1513.4800, -56.164
1513.5000, -56.156
1513.5200, -56.133
1513.5400, -56.132
1513.5600, -56.105
1513.5800, -56.109
1513.6000, -56.087
1513.6200, -56.062
1513.6400, -56.079
1513.6600, -56.051
1513.6800, -56.041
1513.7000, -56.027
1513.7200, -56.004
1513.7400, -55.991
1513.7600, -55.998
1513.7800, -55.978
1513.8000, -55.957
1513.8200, -55.947
1513.8400, -55.945
1513.8600, -55.923
1513.8800, -55.911
1513.9000, -55.899
1513.9200, -55.883
1513.9400, -55.875
1513.9600, -55.868
1513.9800, -55.846
1514.0000, -55.841
1514.0200, -55.826
1514.0400, -55.800
1514.0600, -55.795
1514.0800, -55.798
1514.1000, -55.770
1514.1200, -55.770
1514.1400, -55.758
1514.1600, -55.734
1514.1800, -55.726
1514.2000, -55.717
1514.2200, -55.696
1514.2400, -55.693
1514.2600, -55.663
1514.2800, -55.654
1514.3000, -55.653
1514.3200, -55.640
1514.3400, -55.617
1514.3600, -55.606
1514.3800, -55.585
1514.4000, -55.582
1514.4200, -55.562
1514.4400, -55.550
1514.4600, -55.538
1514.4800, -55.520
1514.5000, -55.513
1514.5200, -55.488
1514.5400, -55.487
1514.5600, -55.466
1514.5800, -55.466
1514.6000, -55.450
1514.6200, -55.434
1514.6400, -55.426
1514.6600, -55.415
1514.6800, -55.399
1514.7000, -55.377
1514.7200, -55.370
1514.7400, -55.364
1514.7600, -55.334
1514.7800, -55.324
1514.8000, -55.318
1514.8200, -55.287
1514.8400, -55.287
1514.8600, -55.271
1514.8800, -55.252
1514.9000, -55.242
1514.9200, -55.228
1514.9400, -55.213
1514.9600, -55.202
1514.9800, -55.186
1515.0000, -55.183
1515.0200, -55.158
1515.0400, -55.157
1515.0600, -55.136
1515.0800, -55.124
1515.1000, -55.108
1515.1200, -55.095
1515.1400, -55.078
1515.1600, -55.055
1515.1800, -55.044
1515.2000, -55.030
1515.2200, -55.011
1515.2400, -55.000
1515.2600, -54.980
1515.2800, -54.976
1515.3000, -54.957
1515.3200, -54.958
1515.3400, -54.922
1515.3600, -54.925
1515.3800, -54.900
1515.4000, -54.887
1515.4200, -54.860
1515.4400, -54.854
1515.4600, -54.822
1515.4800, -54.820
1515.5000, -54.810
1515.5200, -54.791
1515.5400, -54.789
1515.5600, -54.776
1515.5800, -54.761
1515.6000, -54.746
1515.6200, -54.729
1515.6400, -54.718
1515.6600, -54.687
1515.6800, -54.692
1515.7000, -54.667
1515.7200, -54.644
1515.7400, -54.645
1515.7600, -54.614
1515.7800, -54.608
1515.8000, -54.594
1515.8200, -54.578
1515.8400, -54.574
1515.8600, -54.542
1515.8800, -54.529
1515.9000, -54.522
1515.9200, -54.502
1515.9400, -54.494
1515.9600, -54.467
1515.9800, -54.455
1516.0000, -54.444
1516.0200, -54.435
1516.0400, -54.406
1516.0600, -54.390
1516.0800, -54.379
1516.1000, -54.355
1516.1200, -54.337
1516.1400, -54.330
1516.1600, -54.308
1516.1800, -54.292
1516.2000, -54.280
1516.2200, -54.260
1516.2400, -54.247
1516.2600, -54.231
1516.2800, -54.220
1516.3000, -54.200
1516.3200, -54.192
1516.3400, -54.166
1516.3600, -54.150
1516.3800, -54.124
1516.4000, -54.115
1516.4200, -54.098
1516.4400, -54.083
1516.4600, -54.064
1516.4800, -54.050
1516.5000, -54.045
1516.5200, -54.028
1516.5400, -53.995
1516.5600, -53.988
1516.5800, -53.978
1516.6000, -53.958
1516.6200, -53.935
1516.6400, -53.914
1516.6600, -53.895
1516.6800, -53.870
1516.7000, -53.871
1516.7200, -53.847
1516.7400, -53.844
1516.7600, -53.813
1516.7800, -53.799
1516.8000, -53.777
1516.8200, -53.764
1516.8400, -53.749
1516.8600, -53.739
1516.8800, -53.717
1516.9000, -53.695
1516.9200, -53.682
1516.9400, -53.663
1516.9600, -53.642
1516.9800, -53.631
1517.0000, -53.599
1517.0200, -53.587
1517.0400, -53.565
1517.0600, -53.548
1517.0800, -53.525
1517.1000, -53.511
1517.1200, -53.482
1517.1400, -53.480
1517.1600, -53.462
1517.1800, -53.443
1517.2000, -53.423
1517.2200, -53.411
1517.2400, -53.381
1517.2600, -53.362
1517.2800, -53.341
1517.3000, -53.325
1517.3200, -53.310
1517.3400, -53.295
1517.3600, -53.271
1517.3800, -53.266
1517.4000, -53.240
1517.4200, -53.215
1517.4400, -53.205
1517.4600, -53.181
1517.4800, -53.163
1517.5000, -53.141
1517.5200, -53.122
1517.5400, -53.096
1517.5600, -53.087
1517.5800, -53.066
1517.6000, -53.037
1517.6200, -53.031
1517.6400, -53.005
1517.6600, -52.985
1517.6800, -52.967
1517.7000, -52.946
1517.7200, -52.931
1517.7400, -52.910
1517.7600, -52.881
1517.7800, -52.862
1517.8000, -52.845
1517.8200, -52.831
1517.8400, -52.814
1517.8600, -52.791
1517.8800, -52.774
1517.9000, -52.752
1517.9200, -52.731
1517.9400, -52.703
1517.9600, -52.682
1517.9800, -52.665
1518.0000, -52.640
1518.0200, -52.615
1518.0400, -52.598
1518.0600, -52.574
1518.0800, -52.557
1518.1000, -52.547
1518.1200, -52.520
1518.1400, -52.492
1518.1600, -52.483
1518.1800, -52.453
1518.2000, -52.440
1518.2200, -52.402
1518.2400, -52.383
1518.2600, -52.357
1518.2800, -52.339
1518.3000, -52.312
1518.3200, -52.300
1518.3400, -52.296
1518.3600, -52.260
1518.3800, -52.245
1518.4000, -52.231
1518.4200, -52.198
1518.4400, -52.179
1518.4600, -52.150
1518.4800, -52.118
1518.5000, -52.103
1518.5200, -52.083
1518.5400, -52.070
1518.5600, -52.022
1518.5800, -52.007
1518.6000, -51.987
1518.6200, -51.974
1518.6400, -51.943
1518.6600, -51.934
1518.6800, -51.901
1518.7000, -51.873
1518.7200, -51.851
1518.7400, -51.830
1518.7600, -51.813
1518.7800, -51.790
1518.8000, -51.765
1518.8200, -51.746
1518.8400, -51.723
1518.8600, -51.702
1518.8800, -51.677
1518.9000, -51.651
1518.9200, -51.623
1518.9400, -51.591
1518.9600, -51.564
1518.9800, -51.546
1519.0000, -51.521
1519.0200, -51.494
1519.0400, -51.485
1519.0600, -51.464
1519.0800, -51.421
1519.1000, -51.408
1519.1200, -51.375
1519.1400, -51.356
1519.1600, -51.322
1519.1800, -51.295
1519.2000, -51.268
1519.2200, -51.248
1519.2400, -51.213
1519.2600, -51.190
1519.2800, -51.175
1519.3000, -51.160
1519.3200, -51.121
1519.3400, -51.096
1519.3600, -51.069
1519.3800, -51.045
1519.4000, -51.021
1519.4200, -50.983
1519.4400, -50.965
1519.4600, -50.925
1519.4800, -50.896
1519.5000, -50.875
1519.5200, -50.857
1519.5400, -50.822
1519.5600, -50.793
1519.5800, -50.767
1519.6000, -50.747
1519.6200, -50.710
1519.6400, -50.687
1519.6600, -50.661
1519.6800, -50.630
1519.7000, -50.617
1519.7200, -50.586
1519.7400, -50.560
1519.7600, -50.529
1519.7800, -50.504
1519.8000, -50.478
1519.8200, -50.445
1519.8400, -50.412
1519.8600, -50.368
1519.8800, -50.352
1519.9000, -50.328
1519.9200, -50.295
1519.9400, -50.258
1519.9600, -50.234
1519.9800, -50.206
1520.0000, -50.190
1520.0200, -50.155
1520.0400, -50.124
1520.0600, -50.096
1520.0800, -50.061
1520.1000, -50.015
1520.1200, -49.990
1520.1400, -49.960
1520.1600, -49.934
1520.1800, -49.895
1520.2000, -49.861
1520.2200, -49.836
1520.2400, -49.818
1520.2600, -49.777
1520.2800, -49.750
1520.3000, -49.723
1520.3200, -49.687
1520.3400, -49.657
1520.3600, -49.628
1520.3800, -49.590
1520.4000, -49.568
1520.4200, -49.532
1520.4400, -49.502
1520.4600, -49.466
1520.4800, -49.438
1520.5000, -49.393
1520.5200, -49.373
1520.5400, -49.340
1520.5600, -49.307
1520.5800, -49.268
1520.6000, -49.239
1520.6200, -49.196
