70BCSV 	
// AQ6370B OPTICAL SPECTRUM ANALYZER //                 
25
"CTRWL",1550.000000
"SPAN", 100.000000
"START WL",1500.000000
"STOP WL",1600.000000
"WLFREQ", 0
"REFL",-28.8
"LSCL", 5.0
"RESLN",0.100
"AVG",   1
"SMPLAUTO",      0
"SMPL",       5001
"SMPLINTVL",0.0200
"HIGH1"
"MEAS"
"LSUNT",0
"NMSKH","OFF"
"RESCOR",0
"RESPARM", 9050
"FREQPARM", 9050






"[TRACE DATA]"
1500.0000, -61.747
1500.0200, -61.753
1500.0400, -61.761
1500.0600, -61.775
1500.0800, -61.775
1500.1000, -61.737
1500.1200, -61.691
1500.1400, -61.745
1500.1600, -61.728
1500.1800, -61.691
1500.2000, -61.704
1500.2200, -61.702
1500.2400, -61.677
1500.2600, -61.715
1500.2800, -61.709
1500.3000, -61.678
1500.3200, -61.690
1500.3400, -61.659
1500.3600, -61.660
1500.3800, -61.673
1500.4000, -61.666
1500.4200, -61.697
1500.4400, -61.647
1500.4600, -61.657
1500.4800, -61.625
1500.5000, -61.595
1500.5200, -61.650
1500.5400, -61.607
1500.5600, -61.645
1500.5800, -61.604
1500.6000, -61.610
1500.6200, -61.587
1500.6400, -61.581
1500.6600, -61.598
1500.6800, -61.551
1500.7000, -61.572
1500.7200, -61.586
1500.7400, -61.562
1500.7600, -61.564
1500.7800, -61.561
1500.8000, -61.546
1500.8200, -61.543
1500.8400, -61.536
1500.8600, -61.520
1500.8800, -61.508
1500.9000, -61.529
1500.9200, -61.513
1500.9400, -61.500
1500.9600, -61.509
1500.9800, -61.504
1501.0000, -61.480
1501.0200, -61.473
1501.0400, -61.479
1501.0600, -61.448
1501.0800, -61.483
1501.1000, -61.446
1501.1200, -61.452
1501.1400, -61.422
1501.1600, -61.449
1501.1800, -61.416
1501.2000, -61.416
1501.2200, -61.435
1501.2400, -61.424
1501.2600, -61.416
1501.2800, -61.422
1501.3000, -61.408
1501.3200, -61.390
1501.3400, -61.406
1501.3600, -61.372
1501.3800, -61.389
1501.4000, -61.355
1501.4200, -61.373
1501.4400, -61.336
1501.4600, -61.339
1501.4800, -61.345
1501.5000, -61.328
1501.5200, -61.331
1501.5400, -61.337
1501.5600, -61.335
1501.5800, -61.318
1501.6000, -61.326
1501.6200, -61.296
1501.6400, -61.307
1501.6600, -61.294
1501.6800, -61.303
1501.7000, -61.266
1501.7200, -61.307
1501.7400, -61.286
1501.7600, -61.277
1501.7800, -61.288
1501.8000, -61.274
1501.8200, -61.257
1501.8400, -61.251
1501.8600, -61.250
1501.8800, -61.254
1501.9000, -61.242
1501.9200, -61.260
1501.9400, -61.222
1501.9600, -61.188
1501.9800, -61.183
1502.0000, -61.224
1502.0200, -61.221
1502.0400, -61.181
1502.0600, -61.158
1502.0800, -61.176
1502.1000, -61.160
1502.1200, -61.165
1502.1400, -61.152
1502.1600, -61.151
1502.1800, -61.124
1502.2000, -61.140
1502.2200, -61.159
1502.2400, -61.103
1502.2600, -61.103
1502.2800, -61.100
1502.3000, -61.106
1502.3200, -61.127
1502.3400, -61.081
1502.3600, -61.090
1502.3800, -61.027
1502.4000, -61.090
1502.4200, -61.044
1502.4400, -61.059
1502.4600, -61.037
1502.4800, -61.070
1502.5000, -61.024
1502.5200, -61.059
1502.5400, -61.006
1502.5600, -61.051
1502.5800, -61.027
1502.6000, -61.001
1502.6200, -60.997
1502.6400, -60.998
1502.6600, -60.971
1502.6800, -60.984
1502.7000, -60.986
1502.7200, -60.985
1502.7400, -60.969
1502.7600, -60.947
1502.7800, -60.966
1502.8000, -60.923
1502.8200, -60.945
1502.8400, -60.934
1502.8600, -60.922
1502.8800, -60.968
1502.9000, -60.907
1502.9200, -60.887
1502.9400, -60.870
1502.9600, -60.916
1502.9800, -60.874
1503.0000, -60.874
1503.0200, -60.876
1503.0400, -60.867
1503.0600, -60.856
1503.0800, -60.827
1503.1000, -60.860
1503.1200, -60.822
1503.1400, -60.824
1503.1600, -60.816
1503.1800, -60.782
1503.2000, -60.805
1503.2200, -60.806
1503.2400, -60.780
1503.2600, -60.826
1503.2800, -60.779
1503.3000, -60.781
1503.3200, -60.736
1503.3400, -60.771
1503.3600, -60.758
1503.3800, -60.723
1503.4000, -60.733
1503.4200, -60.740
1503.4400, -60.776
1503.4600, -60.719
1503.4800, -60.708
1503.5000, -60.691
1503.5200, -60.686
1503.5400, -60.695
1503.5600, -60.707
1503.5800, -60.673
1503.6000, -60.682
1503.6200, -60.687
1503.6400, -60.663
1503.6600, -60.653
1503.6800, -60.651
1503.7000, -60.654
1503.7200, -60.632
1503.7400, -60.619
1503.7600, -60.626
1503.7800, -60.630
1503.8000, -60.590
1503.8200, -60.620
1503.8400, -60.564
1503.8600, -60.603
1503.8800, -60.595
1503.9000, -60.583
1503.9200, -60.576
1503.9400, -60.570
1503.9600, -60.543
1503.9800, -60.531
1504.0000, -60.533
1504.0200, -60.522
1504.0400, -60.537
1504.0600, -60.512
1504.0800, -60.511
1504.1000, -60.490
1504.1200, -60.485
1504.1400, -60.521
1504.1600, -60.477
1504.1800, -60.463
1504.2000, -60.448
1504.2200, -60.476
1504.2400, -60.435
1504.2600, -60.490
1504.2800, -60.438
1504.3000, -60.415
1504.3200, -60.423
1504.3400, -60.384
1504.3600, -60.396
1504.3800, -60.402
1504.4000, -60.378
1504.4200, -60.395
1504.4400, -60.376
1504.4600, -60.383
1504.4800, -60.379
1504.5000, -60.333
1504.5200, -60.337
1504.5400, -60.383
1504.5600, -60.317
1504.5800, -60.313
1504.6000, -60.324
1504.6200, -60.336
1504.6400, -60.278
1504.6600, -60.325
1504.6800, -60.263
1504.7000, -60.289
1504.7200, -60.286
1504.7400, -60.263
1504.7600, -60.252
1504.7800, -60.252
1504.8000, -60.253
1504.8200, -60.242
1504.8400, -60.241
1504.8600, -60.238
1504.8800, -60.216
1504.9000, -60.221
1504.9200, -60.209
1504.9400, -60.165
1504.9600, -60.178
1504.9800, -60.179
1505.0000, -60.132
1505.0200, -60.204
1505.0400, -60.106
1505.0600, -60.135
1505.0800, -60.149
1505.1000, -60.138
1505.1200, -60.140
1505.1400, -60.113
1505.1600, -60.126
1505.1800, -60.110
1505.2000, -60.089
1505.2200, -60.076
1505.2400, -60.074
1505.2600, -60.040
1505.2800, -60.047
1505.3000, -60.048
1505.3200, -60.049
1505.3400, -60.018
1505.3600, -60.037
1505.3800, -60.018
1505.4000, -59.988
1505.4200, -60.040
1505.4400, -59.981
1505.4600, -59.970
1505.4800, -60.002
1505.5000, -59.965
1505.5200, -59.981
1505.5400, -59.965
1505.5600, -59.934
1505.5800, -59.932
1505.6000, -59.950
1505.6200, -59.925
1505.6400, -59.916
1505.6600, -59.916
1505.6800, -59.906
1505.7000, -59.897
1505.7200, -59.881
1505.7400, -59.896
1505.7600, -59.880
1505.7800, -59.870
1505.8000, -59.854
1505.8200, -59.867
1505.8400, -59.853
1505.8600, -59.842
1505.8800, -59.828
1505.9000, -59.832
1505.9200, -59.797
1505.9400, -59.795
1505.9600, -59.805
1505.9800, -59.789
1506.0000, -59.781
1506.0200, -59.760
1506.0400, -59.787
1506.0600, -59.762
1506.0800, -59.711
1506.1000, -59.747
1506.1200, -59.717
1506.1400, -59.727
1506.1600, -59.719
1506.1800, -59.715
1506.2000, -59.705
1506.2200, -59.691
1506.2400, -59.689
1506.2600, -59.674
1506.2800, -59.668
1506.3000, -59.658
1506.3200, -59.668
1506.3400, -59.629
1506.3600, -59.644
1506.3800, -59.621
1506.4000, -59.633
1506.4200, -59.603
1506.4400, -59.592
1506.4600, -59.598
1506.4800, -59.578
1506.5000, -59.584
1506.5200, -59.587
1506.5400, -59.571
1506.5600, -59.553
1506.5800, -59.542
1506.6000, -59.557
1506.6200, -59.550
1506.6400, -59.515
1506.6600, -59.536
1506.6800, -59.528
1506.7000, -59.483
1506.7200, -59.491
1506.7400, -59.491
1506.7600, -59.490
1506.7800, -59.471
1506.8000, -59.471
1506.8200, -59.448
1506.8400, -59.446
1506.8600, -59.441
1506.8800, -59.426
1506.9000, -59.414
1506.9200, -59.416
1506.9400, -59.392
1506.9600, -59.390
1506.9800, -59.395
1507.0000, -59.378
1507.0200, -59.375
1507.0400, -59.380
1507.0600, -59.381
1507.0800, -59.332
1507.1000, -59.342
1507.1200, -59.352
1507.1400, -59.313
1507.1600, -59.322
1507.1800, -59.287
1507.2000, -59.280
1507.2200, -59.281
1507.2400, -59.295
1507.2600, -59.268
1507.2800, -59.284
1507.3000, -59.283
1507.3200, -59.249
1507.3400, -59.236
1507.3600, -59.232
1507.3800, -59.239
1507.4000, -59.236
1507.4200, -59.207
1507.4400, -59.208
1507.4600, -59.189
1507.4800, -59.201
1507.5000, -59.185
1507.5200, -59.182
1507.5400, -59.144
1507.5600, -59.140
1507.5800, -59.148
1507.6000, -59.134
1507.6200, -59.136
1507.6400, -59.106
1507.6600, -59.098
1507.6800, -59.111
1507.7000, -59.106
1507.7200, -59.092
1507.7400, -59.079
1507.7600, -59.059
1507.7800, -59.067
1507.8000, -59.044
1507.8200, -59.021
1507.8400, -59.034
1507.8600, -59.021
1507.8800, -59.030
1507.9000, -59.001
1507.9200, -58.985
1507.9400, -58.997
1507.9600, -58.971
1507.9800, -58.992
1508.0000, -58.970
1508.0200, -58.955
1508.0400, -58.950
1508.0600, -58.947
1508.0800, -58.932
1508.1000, -58.924
1508.1200, -58.904
1508.1400, -58.915
1508.1600, -58.885
1508.1800, -58.890
1508.2000, -58.885
1508.2200, -58.884
1508.2400, -58.876
1508.2600, -58.862
1508.2800, -58.855
1508.3000, -58.848
1508.3200, -58.844
1508.3400, -58.841
1508.3600, -58.829
1508.3800, -58.813
1508.4000, -58.798
1508.4200, -58.789
1508.4400, -58.787
1508.4600, -58.767
1508.4800, -58.776
1508.5000, -58.765
1508.5200, -58.753
1508.5400, -58.752
1508.5600, -58.743
1508.5800, -58.733
1508.6000, -58.722
1508.6200, -58.718
1508.6400, -58.703
1508.6600, -58.694
1508.6800, -58.672
1508.7000, -58.686
1508.7200, -58.656
1508.7400, -58.658
1508.7600, -58.633
1508.7800, -58.634
1508.8000, -58.629
1508.8200, -58.641
1508.8400, -58.615
1508.8600, -58.605
1508.8800, -58.616
1508.9000, -58.580
1508.9200, -58.583
1508.9400, -58.564
1508.9600, -58.561
1508.9800, -58.543
1509.0000, -58.535
1509.0200, -58.533
1509.0400, -58.519
1509.0600, -58.529
1509.0800, -58.505
1509.1000, -58.511
1509.1200, -58.490
1509.1400, -58.483
1509.1600, -58.470
1509.1800, -58.472
1509.2000, -58.453
1509.2200, -58.449
1509.2400, -58.433
1509.2600, -58.424
1509.2800, -58.411
1509.3000, -58.420
1509.3200, -58.406
1509.3400, -58.380
1509.3600, -58.391
1509.3800, -58.378
1509.4000, -58.364
1509.4200, -58.353
1509.4400, -58.340
1509.4600, -58.337
1509.4800, -58.320
1509.5000, -58.310
1509.5200, -58.302
1509.5400, -58.304
1509.5600, -58.282
1509.5800, -58.287
1509.6000, -58.292
1509.6200, -58.257
1509.6400, -58.244
1509.6600, -58.241
1509.6800, -58.229
1509.7000, -58.220
1509.7200, -58.217
1509.7400, -58.223
1509.7600, -58.185
1509.7800, -58.190
1509.8000, -58.177
1509.8200, -58.182
1509.8400, -58.171
1509.8600, -58.132
1509.8800, -58.145
1509.9000, -58.133
1509.9200, -58.128
1509.9400, -58.108
1509.9600, -58.118
1509.9800, -58.102
1510.0000, -58.106
1510.0200, -58.080
1510.0400, -58.062
1510.0600, -58.051
1510.0800, -58.059
1510.1000, -58.043
1510.1200, -58.030
1510.1400, -58.026
1510.1600, -58.002
1510.1800, -58.018
1510.2000, -57.974
1510.2200, -57.982
1510.2400, -57.964
1510.2600, -57.973
1510.2800, -57.951
1510.3000, -57.937
1510.3200, -57.926
1510.3400, -57.910
1510.3600, -57.912
1510.3800, -57.893
1510.4000, -57.889
1510.4200, -57.865
1510.4400, -57.869
1510.4600, -57.850
1510.4800, -57.840
1510.5000, -57.824
1510.5200, -57.843
1510.5400, -57.810
1510.5600, -57.788
1510.5800, -57.804
1510.6000, -57.784
1510.6200, -57.768
1510.6400, -57.760
1510.6600, -57.745
1510.6800, -57.737
1510.7000, -57.713
1510.7200, -57.710
1510.7400, -57.708
1510.7600, -57.687
1510.7800, -57.680
1510.8000, -57.670
1510.8200, -57.652
1510.8400, -57.647
1510.8600, -57.627
1510.8800, -57.636
1510.9000, -57.616
1510.9200, -57.603
1510.9400, -57.595
1510.9600, -57.588
1510.9800, -57.577
1511.0000, -57.566
1511.0200, -57.559
1511.0400, -57.547
1511.0600, -57.522
1511.0800, -57.520
1511.1000, -57.512
1511.1200, -57.493
1511.1400, -57.490
1511.1600, -57.478
1511.1800, -57.449
1511.2000, -57.465
1511.2200, -57.436
1511.2400, -57.443
1511.2600, -57.418
1511.2800, -57.419
1511.3000, -57.403
1511.3200, -57.388
1511.3400, -57.379
1511.3600, -57.366
1511.3800, -57.343
1511.4000, -57.345
1511.4200, -57.333
1511.4400, -57.325
1511.4600, -57.313
1511.4800, -57.284
1511.5000, -57.281
1511.5200, -57.277
1511.5400, -57.265
1511.5600, -57.253
1511.5800, -57.238
1511.6000, -57.229
1511.6200, -57.214
1511.6400, -57.216
1511.6600, -57.181
1511.6800, -57.191
1511.7000, -57.156
1511.7200, -57.162
1511.7400, -57.153
1511.7600, -57.139
1511.7800, -57.121
1511.8000, -57.123
1511.8200, -57.094
1511.8400, -57.099
1511.8600, -57.081
1511.8800, -57.068
1511.9000, -57.066
1511.9200, -57.046
1511.9400, -57.029
1511.9600, -57.013
1511.9800, -57.008
1512.0000, -56.987
1512.0200, -56.995
1512.0400, -56.973
1512.0600, -56.965
1512.0800, -56.950
1512.1000, -56.929
1512.1200, -56.929
1512.1400, -56.917
1512.1600, -56.911
1512.1800, -56.906
1512.2000, -56.895
1512.2200, -56.880
1512.2400, -56.865
1512.2600, -56.858
1512.2800, -56.835
1512.3000, -56.834
1512.3200, -56.809
1512.3400, -56.808
1512.3600, -56.779
1512.3800, -56.779
1512.4000, -56.785
1512.4200, -56.755
1512.4400, -56.751
1512.4600, -56.760
1512.4800, -56.721
1512.5000, -56.732
1512.5200, -56.699
1512.5400, -56.685
1512.5600, -56.675
1512.5800, -56.671
1512.6000, -56.658
1512.6200, -56.640
1512.6400, -56.626
1512.6600, -56.623
1512.6800, -56.608
1512.7000, -56.597
1512.7200, -56.582
1512.7400, -56.572
1512.7600, -56.564
1512.7800, -56.551
1512.8000, -56.544
1512.8200, -56.531
1512.8400, -56.517
1512.8600, -56.505
1512.8800, -56.498
1512.9000, -56.472
1512.9200, -56.466
1512.9400, -56.460
1512.9600, -56.452
1512.9800, -56.440
1513.0000, -56.413
1513.0200, -56.413
1513.0400, -56.391
1513.0600, -56.386
1513.0800, -56.380
1513.1000, -56.351
1513.1200, -56.353
1513.1400, -56.352
1513.1600, -56.323
1513.1800, -56.329
1513.2000, -56.306
1513.2200, -56.291
1513.2400, -56.280
1513.2600, -56.273
1513.2800, -56.259
1513.3000, -56.236
1513.3200, -56.233
1513.3400, -56.221
1513.3600, -56.202
1513.3800, -56.195
1513.4000, -56.191
1513.4200, -56.153
1513.4400, -56.151
1513.4600, -56.156
1513.4800, -56.135
1513.5000, -56.114
1513.5200, -56.109
1513.5400, -56.096
1513.5600, -56.084
1513.5800, -56.071
1513.6000, -56.061
1513.6200, -56.047
1513.6400, -56.028
1513.6600, -56.016
1513.6800, -56.017
1513.7000, -55.991
1513.7200, -55.989
1513.7400, -55.977
1513.7600, -55.962
1513.7800, -55.949
1513.8000, -55.943
1513.8200, -55.932
1513.8400, -55.908
1513.8600, -55.888
1513.8800, -55.880
1513.9000, -55.870
1513.9200, -55.856
1513.9400, -55.851
1513.9600, -55.843
1513.9800, -55.823
1514.0000, -55.807
1514.0200, -55.786
1514.0400, -55.793
1514.0600, -55.768
1514.0800, -55.761
1514.1000, -55.742
1514.1200, -55.736
1514.1400, -55.737
1514.1600, -55.715
1514.1800, -55.693
1514.2000, -55.675
1514.2200, -55.659
1514.2400, -55.654
1514.2600, -55.637
1514.2800, -55.622
1514.3000, -55.612
1514.3200, -55.601
1514.3400, -55.577
1514.3600, -55.579
1514.3800, -55.560
1514.4000, -55.551
1514.4200, -55.529
1514.4400, -55.516
1514.4600, -55.503
1514.4800, -55.478
1514.5000, -55.482
1514.5200, -55.458
1514.5400, -55.452
1514.5600, -55.436
1514.5800, -55.421
1514.6000, -55.419
1514.6200, -55.400
1514.6400, -55.383
1514.6600, -55.389
1514.6800, -55.352
1514.7000, -55.351
1514.7200, -55.335
1514.7400, -55.319
1514.7600, -55.303
1514.7800, -55.296
1514.8000, -55.275
1514.8200, -55.262
1514.8400, -55.245
1514.8600, -55.246
1514.8800, -55.225
1514.9000, -55.221
1514.9200, -55.200
1514.9400, -55.176
1514.9600, -55.170
1514.9800, -55.154
1515.0000, -55.154
1515.0200, -55.126
1515.0400, -55.121
1515.0600, -55.109
1515.0800, -55.088
1515.1000, -55.072
1515.1200, -55.065
1515.1400, -55.046
1515.1600, -55.030
1515.1800, -55.015
1515.2000, -54.994
1515.2200, -54.979
1515.2400, -54.979
1515.2600, -54.953
1515.2800, -54.932
1515.3000, -54.923
1515.3200, -54.911
1515.3400, -54.897
1515.3600, -54.887
1515.3800, -54.870
1515.4000, -54.865
1515.4200, -54.828
1515.4400, -54.821
1515.4600, -54.794
1515.4800, -54.800
1515.5000, -54.766
1515.5200, -54.768
1515.5400, -54.761
1515.5600, -54.734
1515.5800, -54.722
1515.6000, -54.702
1515.6200, -54.697
1515.6400, -54.676
1515.6600, -54.668
1515.6800, -54.653
1515.7000, -54.633
1515.7200, -54.624
1515.7400, -54.612
1515.7600, -54.579
1515.7800, -54.567
1515.8000, -54.560
1515.8200, -54.549
1515.8400, -54.529
1515.8600, -54.516
1515.8800, -54.495
1515.9000, -54.477
1515.9200, -54.470
1515.9400, -54.451
1515.9600, -54.445
1515.9800, -54.424
1516.0000, -54.412
1516.0200, -54.396
1516.0400, -54.384
1516.0600, -54.357
1516.0800, -54.352
1516.1000, -54.327
1516.1200, -54.311
1516.1400, -54.289
1516.1600, -54.273
1516.1800, -54.259
1516.2000, -54.244
1516.2200, -54.225
1516.2400, -54.210
1516.2600, -54.204
1516.2800, -54.178
1516.3000, -54.182
1516.3200, -54.155
1516.3400, -54.137
1516.3600, -54.118
1516.3800, -54.103
1516.4000, -54.080
1516.4200, -54.075
1516.4400, -54.042
1516.4600, -54.035
1516.4800, -54.009
1516.5000, -53.995
1516.5200, -53.980
1516.5400, -53.969
1516.5600, -53.952
1516.5800, -53.940
1516.6000, -53.920
1516.6200, -53.908
1516.6400, -53.889
1516.6600, -53.867
1516.6800, -53.853
1516.7000, -53.827
1516.7200, -53.812
1516.7400, -53.796
1516.7600, -53.788
1516.7800, -53.768
1516.8000, -53.754
1516.8200, -53.739
1516.8400, -53.709
1516.8600, -53.699
1516.8800, -53.687
1516.9000, -53.669
1516.9200, -53.648
1516.9400, -53.633
1516.9600, -53.614
1516.9800, -53.597
1517.0000, -53.581
1517.0200, -53.550
1517.0400, -53.537
1517.0600, -53.517
1517.0800, -53.504
1517.1000, -53.480
1517.1200, -53.447
1517.1400, -53.442
1517.1600, -53.422
1517.1800, -53.390
1517.2000, -53.394
1517.2200, -53.360
1517.2400, -53.354
1517.2600, -53.335
1517.2800, -53.316
1517.3000, -53.299
1517.3200, -53.270
1517.3400, -53.258
1517.3600, -53.223
1517.3800, -53.223
1517.4000, -53.195
1517.4200, -53.192
1517.4400, -53.160
1517.4600, -53.150
1517.4800, -53.132
1517.5000, -53.112
1517.5200, -53.094
1517.5400, -53.075
1517.5600, -53.057
1517.5800, -53.038
1517.6000, -53.021
1517.6200, -52.994
1517.6400, -52.978
1517.6600, -52.947
1517.6800, -52.931
1517.7000, -52.905
1517.7200, -52.897
1517.7400, -52.874
1517.7600, -52.846
1517.7800, -52.831
1517.8000, -52.806
1517.8200, -52.796
1517.8400, -52.780
1517.8600, -52.756
1517.8800, -52.742
1517.9000, -52.720
1517.9200, -52.698
1517.9400, -52.678
1517.9600, -52.649
1517.9800, -52.634
1518.0000, -52.609
1518.0200, -52.589
1518.0400, -52.564
1518.0600, -52.551
1518.0800, -52.539
1518.1000, -52.499
1518.1200, -52.473
1518.1400, -52.465
1518.1600, -52.446
1518.1800, -52.429
1518.2000, -52.402
1518.2200, -52.379
1518.2400, -52.357
1518.2600, -52.328
1518.2800, -52.315
1518.3000, -52.287
1518.3200, -52.269
1518.3400, -52.244
1518.3600, -52.226
1518.3800, -52.214
1518.4000, -52.187
1518.4200, -52.170
1518.4400, -52.147
1518.4600, -52.122
1518.4800, -52.098
1518.5000, -52.077
1518.5200, -52.054
1518.5400, -52.032
1518.5600, -52.008
1518.5800, -51.975
1518.6000, -51.951
1518.6200, -51.930
1518.6400, -51.906
1518.6600, -51.895
1518.6800, -51.861
1518.7000, -51.843
1518.7200, -51.816
1518.7400, -51.796
1518.7600, -51.777
1518.7800, -51.758
1518.8000, -51.733
1518.8200, -51.711
1518.8400, -51.685
1518.8600, -51.664
1518.8800, -51.645
1518.9000, -51.618
1518.9200, -51.591
1518.9400, -51.560
1518.9600, -51.537
1518.9800, -51.511
1519.0000, -51.487
1519.0200, -51.475
1519.0400, -51.438
1519.0600, -51.403
1519.0800, -51.399
1519.1000, -51.375
1519.1200, -51.344
1519.1400, -51.317
1519.1600, -51.296
1519.1800, -51.267
1519.2000, -51.234
1519.2200, -51.212
1519.2400, -51.184
1519.2600, -51.162
1519.2800, -51.126
1519.3000, -51.096
1519.3200, -51.087
1519.3400, -51.057
1519.3600, -51.036
1519.3800, -51.007
1519.4000, -50.984
1519.4200, -50.954
1519.4400, -50.929
1519.4600, -50.899
1519.4800, -50.872
1519.5000, -50.838
1519.5200, -50.821
1519.5400, -50.784
1519.5600, -50.760
1519.5800, -50.739
1519.6000, -50.711
1519.6200, -50.682
1519.6400, -50.657
1519.6600, -50.617
1519.6800, -50.591
1519.7000, -50.575
1519.7200, -50.549
1519.7400, -50.523
1519.7600, -50.498
1519.7800, -50.471
1519.8000, -50.439
1519.8200, -50.412
1519.8400, -50.383
1519.8600, -50.350
1519.8800, -50.317
1519.9000, -50.289
1519.9200, -50.258
1519.9400, -50.221
1519.9600, -50.208
1519.9800, -50.168
1520.0000, -50.140
1520.0200, -50.106
1520.0400, -50.090
1520.0600, -50.061
1520.0800, -50.027
1520.1000, -49.994
1520.1200, -49.961
1520.1400, -49.918
1520.1600, -49.894
1520.1800, -49.858
1520.2000, -49.827
1520.2200, -49.792
1520.2400, -49.763
1520.2600, -49.747
1520.2800, -49.716
1520.3000, -49.687
1520.3200, -49.654
1520.3400, -49.624
1520.3600, -49.595
1520.3800, -49.566
1520.4000, -49.531
1520.4200, -49.502
1520.4400, -49.468
1520.4600, -49.427
1520.4800, -49.393
1520.5000, -49.364
1520.5200, -49.337
1520.5400, -49.305
1520.5600, -49.273
1520.5800, -49.237
1520.6000, -49.192
1520.6200, -49.167
