70BCSV 	
// AQ6370B OPTICAL SPECTRUM ANALYZER //                 
25
"CTRWL",1550.000000
"SPAN", 100.000000
"START WL",1500.000000
"STOP WL",1600.000000
"WLFREQ", 0
"REFL",-28.8
"LSCL", 5.0
"RESLN",0.100
"AVG",   1
"SMPLAUTO",      0
"SMPL",       5001
"SMPLINTVL",0.0200
"HIGH1"
"MEAS"
"LSUNT",0
"NMSKH","OFF"
"RESCOR",0
"RESPARM", 9050
"FREQPARM", 9050






"[TRACE DATA]"
1500.0000, -61.991
1500.0200, -61.975
1500.0400, -61.939
1500.0600, -61.947
1500.0800, -61.927
1500.1000, -61.930
1500.1200, -61.948
1500.1400, -61.925
1500.1600, -61.904
1500.1800, -61.931
1500.2000, -61.963
1500.2200, -61.898
1500.2400, -61.927
1500.2600, -61.922
1500.2800, -61.905
1500.3000, -61.908
1500.3200, -61.893
1500.3400, -61.875
1500.3600, -61.865
1500.3800, -61.865
1500.4000, -61.873
1500.4200, -61.843
1500.4400, -61.865
1500.4600, -61.831
1500.4800, -61.817
1500.5000, -61.830
1500.5200, -61.809
1500.5400, -61.853
1500.5600, -61.818
1500.5800, -61.797
1500.6000, -61.777
1500.6200, -61.790
1500.6400, -61.765
1500.6600, -61.806
1500.6800, -61.789
1500.7000, -61.787
1500.7200, -61.810
1500.7400, -61.770
1500.7600, -61.775
1500.7800, -61.753
1500.8000, -61.753
1500.8200, -61.770
1500.8400, -61.730
1500.8600, -61.738
1500.8800, -61.743
1500.9000, -61.709
1500.9200, -61.757
1500.9400, -61.715
1500.9600, -61.691
1500.9800, -61.689
1501.0000, -61.690
1501.0200, -61.672
1501.0400, -61.672
1501.0600, -61.658
1501.0800, -61.687
1501.1000, -61.671
1501.1200, -61.628
1501.1400, -61.625
1501.1600, -61.634
1501.1800, -61.640
1501.2000, -61.656
1501.2200, -61.660
1501.2400, -61.648
1501.2600, -61.630
1501.2800, -61.600
1501.3000, -61.582
1501.3200, -61.631
1501.3400, -61.597
1501.3600, -61.589
1501.3800, -61.578
1501.4000, -61.602
1501.4200, -61.570
1501.4400, -61.592
1501.4600, -61.560
1501.4800, -61.548
1501.5000, -61.569
1501.5200, -61.517
1501.5400, -61.533
1501.5600, -61.537
1501.5800, -61.517
1501.6000, -61.513
1501.6200, -61.498
1501.6400, -61.504
1501.6600, -61.525
1501.6800, -61.472
1501.7000, -61.499
1501.7200, -61.494
1501.7400, -61.482
1501.7600, -61.472
1501.7800, -61.494
1501.8000, -61.461
1501.8200, -61.471
1501.8400, -61.457
1501.8600, -61.449
1501.8800, -61.460
1501.9000, -61.466
1501.9200, -61.446
1501.9400, -61.433
1501.9600, -61.415
1501.9800, -61.402
1502.0000, -61.386
1502.0200, -61.422
1502.0400, -61.394
1502.0600, -61.396
1502.0800, -61.399
1502.1000, -61.362
1502.1200, -61.361
1502.1400, -61.360
1502.1600, -61.341
1502.1800, -61.360
1502.2000, -61.373
1502.2200, -61.331
1502.2400, -61.344
1502.2600, -61.331
1502.2800, -61.305
1502.3000, -61.309
1502.3200, -61.290
1502.3400, -61.307
1502.3600, -61.299
1502.3800, -61.283
1502.4000, -61.291
1502.4200, -61.274
1502.4400, -61.306
1502.4600, -61.244
1502.4800, -61.247
1502.5000, -61.257
1502.5200, -61.232
1502.5400, -61.234
1502.5600, -61.225
1502.5800, -61.216
1502.6000, -61.233
1502.6200, -61.209
1502.6400, -61.194
1502.6600, -61.218
1502.6800, -61.185
1502.7000, -61.180
1502.7200, -61.172
1502.7400, -61.193
1502.7600, -61.169
1502.7800, -61.180
1502.8000, -61.180
1502.8200, -61.137
1502.8400, -61.119
1502.8600, -61.138
1502.8800, -61.138
1502.9000, -61.093
1502.9200, -61.083
1502.9400, -61.121
1502.9600, -61.089
1502.9800, -61.095
1503.0000, -61.060
1503.0200, -61.075
1503.0400, -61.056
1503.0600, -61.059
1503.0800, -61.049
1503.1000, -61.038
1503.1200, -61.044
1503.1400, -61.055
1503.1600, -61.054
1503.1800, -61.046
1503.2000, -61.013
1503.2200, -61.010
1503.2400, -60.998
1503.2600, -60.992
1503.2800, -60.968
1503.3000, -61.003
1503.3200, -60.986
1503.3400, -60.986
1503.3600, -61.000
1503.3800, -60.953
1503.4000, -60.939
1503.4200, -60.981
1503.4400, -60.927
1503.4600, -60.919
1503.4800, -60.911
1503.5000, -60.892
1503.5200, -60.903
1503.5400, -60.894
1503.5600, -60.901
1503.5800, -60.888
1503.6000, -60.886
1503.6200, -60.868
1503.6400, -60.894
1503.6600, -60.864
1503.6800, -60.853
1503.7000, -60.860
1503.7200, -60.863
1503.7400, -60.859
1503.7600, -60.833
1503.7800, -60.827
1503.8000, -60.806
1503.8200, -60.820
1503.8400, -60.786
1503.8600, -60.801
1503.8800, -60.795
1503.9000, -60.781
1503.9200, -60.787
1503.9400, -60.765
1503.9600, -60.741
1503.9800, -60.757
1504.0000, -60.760
1504.0200, -60.742
1504.0400, -60.750
1504.0600, -60.701
1504.0800, -60.741
1504.1000, -60.748
1504.1200, -60.724
1504.1400, -60.694
1504.1600, -60.677
1504.1800, -60.669
1504.2000, -60.665
1504.2200, -60.658
1504.2400, -60.634
1504.2600, -60.689
1504.2800, -60.647
1504.3000, -60.656
1504.3200, -60.625
1504.3400, -60.627
1504.3600, -60.596
1504.3800, -60.627
1504.4000, -60.580
1504.4200, -60.612
1504.4400, -60.609
1504.4600, -60.587
1504.4800, -60.539
1504.5000, -60.561
1504.5200, -60.582
1504.5400, -60.557
1504.5600, -60.521
1504.5800, -60.545
1504.6000, -60.525
1504.6200, -60.508
1504.6400, -60.514
1504.6600, -60.524
1504.6800, -60.487
1504.7000, -60.512
1504.7200, -60.469
1504.7400, -60.485
1504.7600, -60.498
1504.7800, -60.497
1504.8000, -60.451
1504.8200, -60.452
1504.8400, -60.437
1504.8600, -60.415
1504.8800, -60.431
1504.9000, -60.410
1504.9200, -60.438
1504.9400, -60.389
1504.9600, -60.411
1504.9800, -60.370
1505.0000, -60.377
1505.0200, -60.366
1505.0400, -60.398
1505.0600, -60.350
1505.0800, -60.364
1505.1000, -60.370
1505.1200, -60.328
1505.1400, -60.315
1505.1600, -60.343
1505.1800, -60.312
1505.2000, -60.294
1505.2200, -60.279
1505.2400, -60.306
1505.2600, -60.289
1505.2800, -60.282
1505.3000, -60.283
1505.3200, -60.264
1505.3400, -60.233
1505.3600, -60.258
1505.3800, -60.240
1505.4000, -60.220
1505.4200, -60.211
1505.4400, -60.217
1505.4600, -60.223
1505.4800, -60.183
1505.5000, -60.177
1505.5200, -60.199
1505.5400, -60.177
1505.5600, -60.153
1505.5800, -60.159
1505.6000, -60.151
1505.6200, -60.153
1505.6400, -60.135
1505.6600, -60.119
1505.6800, -60.134
1505.7000, -60.123
1505.7200, -60.127
1505.7400, -60.094
1505.7600, -60.086
1505.7800, -60.060
1505.8000, -60.087
1505.8200, -60.069
1505.8400, -60.059
1505.8600, -60.061
1505.8800, -60.051
1505.9000, -60.043
1505.9200, -60.040
1505.9400, -60.019
1505.9600, -60.009
1505.9800, -60.000
1506.0000, -59.990
1506.0200, -59.990
1506.0400, -59.995
1506.0600, -59.972
1506.0800, -59.975
1506.1000, -59.963
1506.1200, -59.954
1506.1400, -59.941
1506.1600, -59.922
1506.1800, -59.949
1506.2000, -59.920
1506.2200, -59.913
1506.2400, -59.883
1506.2600, -59.884
1506.2800, -59.908
1506.3000, -59.880
1506.3200, -59.870
1506.3400, -59.847
1506.3600, -59.862
1506.3800, -59.871
1506.4000, -59.849
1506.4200, -59.846
1506.4400, -59.839
1506.4600, -59.801
1506.4800, -59.808
1506.5000, -59.802
1506.5200, -59.795
1506.5400, -59.784
1506.5600, -59.791
1506.5800, -59.770
1506.6000, -59.745
1506.6200, -59.769
1506.6400, -59.744
1506.6600, -59.736
1506.6800, -59.726
1506.7000, -59.733
1506.7200, -59.704
1506.7400, -59.703
1506.7600, -59.721
1506.7800, -59.695
1506.8000, -59.685
1506.8200, -59.691
1506.8400, -59.673
1506.8600, -59.668
1506.8800, -59.644
1506.9000, -59.633
1506.9200, -59.649
1506.9400, -59.624
1506.9600, -59.614
1506.9800, -59.634
1507.0000, -59.616
1507.0200, -59.613
1507.0400, -59.605
1507.0600, -59.560
1507.0800, -59.579
1507.1000, -59.578
1507.1200, -59.559
1507.1400, -59.558
1507.1600, -59.552
1507.1800, -59.536
1507.2000, -59.544
1507.2200, -59.520
1507.2400, -59.518
1507.2600, -59.514
1507.2800, -59.501
1507.3000, -59.505
1507.3200, -59.481
1507.3400, -59.469
1507.3600, -59.460
1507.3800, -59.466
1507.4000, -59.448
1507.4200, -59.445
1507.4400, -59.428
1507.4600, -59.421
1507.4800, -59.403
1507.5000, -59.401
1507.5200, -59.397
1507.5400, -59.374
1507.5600, -59.383
1507.5800, -59.374
1507.6000, -59.356
1507.6200, -59.357
1507.6400, -59.333
1507.6600, -59.343
1507.6800, -59.328
1507.7000, -59.334
1507.7200, -59.313
1507.7400, -59.300
1507.7600, -59.286
1507.7800, -59.284
1507.8000, -59.308
1507.8200, -59.262
1507.8400, -59.278
1507.8600, -59.256
1507.8800, -59.248
1507.9000, -59.254
1507.9200, -59.218
1507.9400, -59.209
1507.9600, -59.220
1507.9800, -59.214
1508.0000, -59.184
1508.0200, -59.186
1508.0400, -59.193
1508.0600, -59.179
1508.0800, -59.153
1508.1000, -59.161
1508.1200, -59.151
1508.1400, -59.143
1508.1600, -59.117
1508.1800, -59.134
1508.2000, -59.111
1508.2200, -59.103
1508.2400, -59.111
1508.2600, -59.093
1508.2800, -59.093
1508.3000, -59.066
1508.3200, -59.092
1508.3400, -59.067
1508.3600, -59.054
1508.3800, -59.059
1508.4000, -59.015
1508.4200, -59.037
1508.4400, -59.004
1508.4600, -59.020
1508.4800, -59.007
1508.5000, -58.974
1508.5200, -58.988
1508.5400, -58.977
1508.5600, -58.974
1508.5800, -58.986
1508.6000, -58.952
1508.6200, -58.930
1508.6400, -58.942
1508.6600, -58.937
1508.6800, -58.904
1508.7000, -58.908
1508.7200, -58.900
1508.7400, -58.892
1508.7600, -58.879
1508.7800, -58.890
1508.8000, -58.866
1508.8200, -58.884
1508.8400, -58.864
1508.8600, -58.839
1508.8800, -58.855
1508.9000, -58.816
1508.9200, -58.820
1508.9400, -58.796
1508.9600, -58.794
1508.9800, -58.786
1509.0000, -58.778
1509.0200, -58.785
1509.0400, -58.761
1509.0600, -58.753
1509.0800, -58.744
1509.1000, -58.761
1509.1200, -58.743
1509.1400, -58.740
1509.1600, -58.700
1509.1800, -58.707
1509.2000, -58.692
1509.2200, -58.686
1509.2400, -58.676
1509.2600, -58.665
1509.2800, -58.660
1509.3000, -58.630
1509.3200, -58.628
1509.3400, -58.638
1509.3600, -58.623
1509.3800, -58.616
1509.4000, -58.601
1509.4200, -58.598
1509.4400, -58.578
1509.4600, -58.567
1509.4800, -58.581
1509.5000, -58.539
1509.5200, -58.547
1509.5400, -58.540
1509.5600, -58.537
1509.5800, -58.526
1509.6000, -58.522
1509.6200, -58.508
1509.6400, -58.486
1509.6600, -58.481
1509.6800, -58.497
1509.7000, -58.457
1509.7200, -58.452
1509.7400, -58.455
1509.7600, -58.445
1509.7800, -58.444
1509.8000, -58.430
1509.8200, -58.424
1509.8400, -58.414
1509.8600, -58.407
1509.8800, -58.377
1509.9000, -58.377
1509.9200, -58.384
1509.9400, -58.364
1509.9600, -58.336
1509.9800, -58.342
1510.0000, -58.355
1510.0200, -58.323
1510.0400, -58.319
1510.0600, -58.308
1510.0800, -58.297
1510.1000, -58.298
1510.1200, -58.280
1510.1400, -58.250
1510.1600, -58.252
1510.1800, -58.263
1510.2000, -58.228
1510.2200, -58.220
1510.2400, -58.217
1510.2600, -58.203
1510.2800, -58.200
1510.3000, -58.174
1510.3200, -58.167
1510.3400, -58.156
1510.3600, -58.154
1510.3800, -58.141
1510.4000, -58.109
1510.4200, -58.126
1510.4400, -58.118
1510.4600, -58.093
1510.4800, -58.082
1510.5000, -58.075
1510.5200, -58.064
1510.5400, -58.072
1510.5600, -58.031
1510.5800, -58.034
1510.6000, -58.039
1510.6200, -58.009
1510.6400, -57.997
1510.6600, -57.996
1510.6800, -57.986
1510.7000, -57.974
1510.7200, -57.963
1510.7400, -57.950
1510.7600, -57.955
1510.7800, -57.929
1510.8000, -57.922
1510.8200, -57.917
1510.8400, -57.913
1510.8600, -57.900
1510.8800, -57.875
1510.9000, -57.841
1510.9200, -57.853
1510.9400, -57.852
1510.9600, -57.843
1510.9800, -57.814
1511.0000, -57.825
1511.0200, -57.809
1511.0400, -57.809
1511.0600, -57.780
1511.0800, -57.760
1511.1000, -57.773
1511.1200, -57.756
1511.1400, -57.730
1511.1600, -57.728
1511.1800, -57.693
1511.2000, -57.713
1511.2200, -57.716
1511.2400, -57.674
1511.2600, -57.674
1511.2800, -57.656
1511.3000, -57.648
1511.3200, -57.636
1511.3400, -57.638
1511.3600, -57.614
1511.3800, -57.582
1511.4000, -57.600
1511.4200, -57.583
1511.4400, -57.577
1511.4600, -57.553
1511.4800, -57.555
1511.5000, -57.537
1511.5200, -57.517
1511.5400, -57.521
1511.5600, -57.511
1511.5800, -57.507
1511.6000, -57.474
1511.6200, -57.476
1511.6400, -57.455
1511.6600, -57.453
1511.6800, -57.435
1511.7000, -57.429
1511.7200, -57.415
1511.7400, -57.409
1511.7600, -57.394
1511.7800, -57.393
1511.8000, -57.370
1511.8200, -57.359
1511.8400, -57.366
1511.8600, -57.319
1511.8800, -57.317
1511.9000, -57.307
1511.9200, -57.294
1511.9400, -57.284
1511.9600, -57.285
1511.9800, -57.277
1512.0000, -57.259
1512.0200, -57.239
1512.0400, -57.230
1512.0600, -57.207
1512.0800, -57.219
1512.1000, -57.188
1512.1200, -57.193
1512.1400, -57.175
1512.1600, -57.160
1512.1800, -57.155
1512.2000, -57.145
1512.2200, -57.132
1512.2400, -57.133
1512.2600, -57.101
1512.2800, -57.101
1512.3000, -57.091
1512.3200, -57.058
1512.3400, -57.066
1512.3600, -57.053
1512.3800, -57.043
1512.4000, -57.049
1512.4200, -57.033
1512.4400, -57.022
1512.4600, -56.995
1512.4800, -56.993
1512.5000, -56.967
1512.5200, -56.970
1512.5400, -56.955
1512.5600, -56.949
1512.5800, -56.933
1512.6000, -56.915
1512.6200, -56.902
1512.6400, -56.892
1512.6600, -56.884
1512.6800, -56.877
1512.7000, -56.863
1512.7200, -56.856
1512.7400, -56.847
1512.7600, -56.831
1512.7800, -56.810
1512.8000, -56.803
1512.8200, -56.775
1512.8400, -56.781
1512.8600, -56.776
1512.8800, -56.750
1512.9000, -56.755
1512.9200, -56.751
1512.9400, -56.737
1512.9600, -56.720
1512.9800, -56.687
1513.0000, -56.681
1513.0200, -56.687
1513.0400, -56.652
1513.0600, -56.648
1513.0800, -56.629
1513.1000, -56.625
1513.1200, -56.615
1513.1400, -56.606
1513.1600, -56.590
1513.1800, -56.582
1513.2000, -56.574
1513.2200, -56.555
1513.2400, -56.543
1513.2600, -56.532
1513.2800, -56.523
1513.3000, -56.517
1513.3200, -56.494
1513.3400, -56.489
1513.3600, -56.475
1513.3800, -56.462
1513.4000, -56.443
1513.4200, -56.425
1513.4400, -56.416
1513.4600, -56.415
1513.4800, -56.406
1513.5000, -56.387
1513.5200, -56.373
1513.5400, -56.355
1513.5600, -56.351
1513.5800, -56.339
1513.6000, -56.332
1513.6200, -56.313
1513.6400, -56.304
1513.6600, -56.300
1513.6800, -56.286
1513.7000, -56.270
1513.7200, -56.258
1513.7400, -56.243
1513.7600, -56.212
1513.7800, -56.211
1513.8000, -56.208
1513.8200, -56.204
1513.8400, -56.180
1513.8600, -56.155
1513.8800, -56.173
1513.9000, -56.133
1513.9200, -56.129
1513.9400, -56.118
1513.9600, -56.103
1513.9800, -56.084
1514.0000, -56.056
1514.0200, -56.057
1514.0400, -56.034
1514.0600, -56.034
1514.0800, -56.026
1514.1000, -56.018
1514.1200, -56.006
1514.1400, -55.986
1514.1600, -55.977
1514.1800, -55.952
1514.2000, -55.952
1514.2200, -55.919
1514.2400, -55.929
1514.2600, -55.909
1514.2800, -55.891
1514.3000, -55.881
1514.3200, -55.868
1514.3400, -55.852
1514.3600, -55.836
1514.3800, -55.830
1514.4000, -55.812
1514.4200, -55.808
1514.4400, -55.793
1514.4600, -55.774
1514.4800, -55.755
1514.5000, -55.746
1514.5200, -55.735
1514.5400, -55.725
1514.5600, -55.714
1514.5800, -55.701
1514.6000, -55.693
1514.6200, -55.673
1514.6400, -55.654
1514.6600, -55.661
1514.6800, -55.629
1514.7000, -55.616
1514.7200, -55.601
1514.7400, -55.594
1514.7600, -55.579
1514.7800, -55.565
1514.8000, -55.556
1514.8200, -55.541
1514.8400, -55.527
1514.8600, -55.515
1514.8800, -55.496
1514.9000, -55.489
1514.9200, -55.461
1514.9400, -55.458
1514.9600, -55.436
1514.9800, -55.420
1515.0000, -55.396
1515.0200, -55.397
1515.0400, -55.393
1515.0600, -55.377
1515.0800, -55.356
1515.1000, -55.341
1515.1200, -55.332
1515.1400, -55.322
1515.1600, -55.294
1515.1800, -55.288
1515.2000, -55.271
1515.2200, -55.253
1515.2400, -55.253
1515.2600, -55.230
1515.2800, -55.216
1515.3000, -55.191
1515.3200, -55.179
1515.3400, -55.169
1515.3600, -55.158
1515.3800, -55.152
1515.4000, -55.135
1515.4200, -55.115
1515.4400, -55.102
1515.4600, -55.079
1515.4800, -55.069
1515.5000, -55.055
1515.5200, -55.044
1515.5400, -55.030
1515.5600, -55.015
1515.5800, -54.994
1515.6000, -54.983
1515.6200, -54.964
1515.6400, -54.958
1515.6600, -54.946
1515.6800, -54.925
1515.7000, -54.907
1515.7200, -54.899
1515.7400, -54.895
1515.7600, -54.872
1515.7800, -54.860
1515.8000, -54.843
1515.8200, -54.822
1515.8400, -54.809
1515.8600, -54.781
1515.8800, -54.776
1515.9000, -54.751
1515.9200, -54.740
1515.9400, -54.722
1515.9600, -54.707
1515.9800, -54.695
1516.0000, -54.678
1516.0200, -54.667
1516.0400, -54.646
1516.0600, -54.638
1516.0800, -54.625
1516.1000, -54.601
1516.1200, -54.599
1516.1400, -54.572
1516.1600, -54.559
1516.1800, -54.542
1516.2000, -54.529
1516.2200, -54.515
1516.2400, -54.503
1516.2600, -54.478
1516.2800, -54.473
1516.3000, -54.454
1516.3200, -54.444
1516.3400, -54.418
1516.3600, -54.412
1516.3800, -54.381
1516.4000, -54.374
1516.4200, -54.351
1516.4400, -54.336
1516.4600, -54.324
1516.4800, -54.307
1516.5000, -54.290
1516.5200, -54.264
1516.5400, -54.248
1516.5600, -54.235
1516.5800, -54.232
1516.6000, -54.207
1516.6200, -54.184
1516.6400, -54.183
1516.6600, -54.151
1516.6800, -54.145
1516.7000, -54.126
1516.7200, -54.110
1516.7400, -54.094
1516.7600, -54.067
1516.7800, -54.054
1516.8000, -54.026
1516.8200, -54.013
1516.8400, -54.002
1516.8600, -53.977
1516.8800, -53.959
1516.9000, -53.941
1516.9200, -53.926
1516.9400, -53.920
1516.9600, -53.896
1516.9800, -53.874
1517.0000, -53.846
1517.0200, -53.841
1517.0400, -53.820
1517.0600, -53.801
1517.0800, -53.784
1517.1000, -53.768
1517.1200, -53.742
1517.1400, -53.739
1517.1600, -53.709
1517.1800, -53.687
1517.2000, -53.669
1517.2200, -53.658
1517.2400, -53.640
1517.2600, -53.627
1517.2800, -53.614
1517.3000, -53.604
1517.3200, -53.573
1517.3400, -53.550
1517.3600, -53.533
1517.3800, -53.510
1517.4000, -53.502
1517.4200, -53.481
1517.4400, -53.462
1517.4600, -53.442
1517.4800, -53.412
1517.5000, -53.390
1517.5200, -53.388
1517.5400, -53.362
1517.5600, -53.343
1517.5800, -53.324
1517.6000, -53.308
1517.6200, -53.301
1517.6400, -53.284
1517.6600, -53.257
1517.6800, -53.236
1517.7000, -53.209
1517.7200, -53.187
1517.7400, -53.164
1517.7600, -53.139
1517.7800, -53.129
1517.8000, -53.104
1517.8200, -53.072
1517.8400, -53.067
1517.8600, -53.056
1517.8800, -53.024
1517.9000, -53.007
1517.9200, -52.982
1517.9400, -52.956
1517.9600, -52.943
1517.9800, -52.923
1518.0000, -52.890
1518.0200, -52.885
1518.0400, -52.869
1518.0600, -52.841
1518.0800, -52.821
1518.1000, -52.803
1518.1200, -52.782
1518.1400, -52.751
1518.1600, -52.739
1518.1800, -52.712
1518.2000, -52.692
1518.2200, -52.681
1518.2400, -52.659
1518.2600, -52.636
1518.2800, -52.610
1518.3000, -52.596
1518.3200, -52.572
1518.3400, -52.554
1518.3600, -52.536
1518.3800, -52.515
1518.4000, -52.492
1518.4200, -52.452
1518.4400, -52.434
1518.4600, -52.421
1518.4800, -52.393
1518.5000, -52.374
1518.5200, -52.357
1518.5400, -52.333
1518.5600, -52.316
1518.5800, -52.292
1518.6000, -52.261
1518.6200, -52.248
1518.6400, -52.214
1518.6600, -52.193
1518.6800, -52.159
1518.7000, -52.141
1518.7200, -52.125
1518.7400, -52.093
1518.7600, -52.069
1518.7800, -52.043
1518.8000, -52.023
1518.8200, -52.007
1518.8400, -51.989
1518.8600, -51.961
1518.8800, -51.929
1518.9000, -51.910
1518.9200, -51.891
1518.9400, -51.870
1518.9600, -51.840
1518.9800, -51.817
1519.0000, -51.797
1519.0200, -51.778
1519.0400, -51.756
1519.0600, -51.724
1519.0800, -51.692
1519.1000, -51.676
1519.1200, -51.647
1519.1400, -51.627
1519.1600, -51.607
1519.1800, -51.577
1519.2000, -51.551
1519.2200, -51.526
1519.2400, -51.498
1519.2600, -51.473
1519.2800, -51.448
1519.3000, -51.429
1519.3200, -51.403
1519.3400, -51.364
1519.3600, -51.339
1519.3800, -51.318
1519.4000, -51.291
1519.4200, -51.266
1519.4400, -51.236
1519.4600, -51.212
1519.4800, -51.177
1519.5000, -51.160
1519.5200, -51.148
1519.5400, -51.116
1519.5600, -51.089
1519.5800, -51.050
1519.6000, -51.018
1519.6200, -50.990
1519.6400, -50.956
1519.6600, -50.931
1519.6800, -50.916
1519.7000, -50.881
1519.7200, -50.853
1519.7400, -50.833
1519.7600, -50.802
1519.7800, -50.777
1519.8000, -50.755
1519.8200, -50.720
1519.8400, -50.690
1519.8600, -50.667
1519.8800, -50.626
1519.9000, -50.611
1519.9200, -50.576
1519.9400, -50.555
1519.9600, -50.530
1519.9800, -50.492
1520.0000, -50.461
1520.0200, -50.431
1520.0400, -50.407
1520.0600, -50.376
1520.0800, -50.347
1520.1000, -50.322
1520.1200, -50.288
1520.1400, -50.250
1520.1600, -50.227
1520.1800, -50.195
1520.2000, -50.161
1520.2200, -50.136
1520.2400, -50.109
1520.2600, -50.083
1520.2800, -50.044
1520.3000, -49.999
1520.3200, -49.980
1520.3400, -49.964
1520.3600, -49.911
1520.3800, -49.887
1520.4000, -49.860
1520.4200, -49.819
1520.4400, -49.800
1520.4600, -49.773
1520.4800, -49.732
1520.5000, -49.708
1520.5200, -49.665
1520.5400, -49.632
1520.5600, -49.600
1520.5800, -49.565
1520.6000, -49.534
1520.6200, -49.500
