70BCSV 	
// AQ6370B OPTICAL SPECTRUM ANALYZER //                 
25
"CTRWL",1550.000000
"SPAN", 100.000000
"START WL",1500.000000
"STOP WL",1600.000000
"WLFREQ", 0
"REFL",-28.8
"LSCL", 5.0
"RESLN",0.100
"AVG",   1
"SMPLAUTO",      0
"SMPL",       5001
"SMPLINTVL",0.0200
"HIGH1"
"MEAS"
"LSUNT",0
"NMSKH","OFF"
"RESCOR",0
"RESPARM", 9050
"FREQPARM", 9050






"[TRACE DATA]"
1500.0000, -61.901
1500.0200, -61.859
1500.0400, -61.858
1500.0600, -61.874
1500.0800, -61.860
1500.1000, -61.897
1500.1200, -61.866
1500.1400, -61.835
1500.1600, -61.794
1500.1800, -61.817
1500.2000, -61.830
1500.2200, -61.850
1500.2400, -61.801
1500.2600, -61.839
1500.2800, -61.779
1500.3000, -61.862
1500.3200, -61.807
1500.3400, -61.753
1500.3600, -61.810
1500.3800, -61.814
1500.4000, -61.761
1500.4200, -61.807
1500.4400, -61.740
1500.4600, -61.743
1500.4800, -61.750
1500.5000, -61.756
1500.5200, -61.747
1500.5400, -61.766
1500.5600, -61.725
1500.5800, -61.740
1500.6000, -61.729
1500.6200, -61.694
1500.6400, -61.746
1500.6600, -61.732
1500.6800, -61.685
1500.7000, -61.685
1500.7200, -61.726
1500.7400, -61.709
1500.7600, -61.666
1500.7800, -61.664
1500.8000, -61.666
1500.8200, -61.697
1500.8400, -61.643
1500.8600, -61.651
1500.8800, -61.661
1500.9000, -61.617
1500.9200, -61.611
1500.9400, -61.626
1500.9600, -61.648
1500.9800, -61.603
1501.0000, -61.607
1501.0200, -61.559
1501.0400, -61.636
1501.0600, -61.576
1501.0800, -61.602
1501.1000, -61.542
1501.1200, -61.595
1501.1400, -61.577
1501.1600, -61.555
1501.1800, -61.570
1501.2000, -61.532
1501.2200, -61.553
1501.2400, -61.554
1501.2600, -61.528
1501.2800, -61.555
1501.3000, -61.522
1501.3200, -61.512
1501.3400, -61.516
1501.3600, -61.488
1501.3800, -61.469
1501.4000, -61.502
1501.4200, -61.512
1501.4400, -61.484
1501.4600, -61.473
1501.4800, -61.475
1501.5000, -61.430
1501.5200, -61.469
1501.5400, -61.467
1501.5600, -61.434
1501.5800, -61.435
1501.6000, -61.454
1501.6200, -61.437
1501.6400, -61.439
1501.6600, -61.424
1501.6800, -61.414
1501.7000, -61.395
1501.7200, -61.414
1501.7400, -61.414
1501.7600, -61.429
1501.7800, -61.372
1501.8000, -61.403
1501.8200, -61.371
1501.8400, -61.365
1501.8600, -61.362
1501.8800, -61.374
1501.9000, -61.362
1501.9200, -61.358
1501.9400, -61.336
1501.9600, -61.315
1501.9800, -61.361
1502.0000, -61.286
1502.0200, -61.317
1502.0400, -61.316
1502.0600, -61.309
1502.0800, -61.283
1502.1000, -61.281
1502.1200, -61.292
1502.1400, -61.283
1502.1600, -61.302
1502.1800, -61.265
1502.2000, -61.233
1502.2200, -61.239
1502.2400, -61.256
1502.2600, -61.237
1502.2800, -61.232
1502.3000, -61.220
1502.3200, -61.247
1502.3400, -61.226
1502.3600, -61.199
1502.3800, -61.171
1502.4000, -61.187
1502.4200, -61.200
1502.4400, -61.182
1502.4600, -61.176
1502.4800, -61.181
1502.5000, -61.152
1502.5200, -61.158
1502.5400, -61.154
1502.5600, -61.139
1502.5800, -61.135
1502.6000, -61.115
1502.6200, -61.117
1502.6400, -61.120
1502.6600, -61.113
1502.6800, -61.113
1502.7000, -61.098
1502.7200, -61.099
1502.7400, -61.127
1502.7600, -61.094
1502.7800, -61.081
1502.8000, -61.088
1502.8200, -61.065
1502.8400, -61.062
1502.8600, -61.035
1502.8800, -61.040
1502.9000, -61.031
1502.9200, -61.050
1502.9400, -61.001
1502.9600, -60.994
1502.9800, -61.023
1503.0000, -61.016
1503.0200, -60.999
1503.0400, -60.977
1503.0600, -60.960
1503.0800, -60.962
1503.1000, -60.950
1503.1200, -60.972
1503.1400, -60.962
1503.1600, -60.957
1503.1800, -60.955
1503.2000, -60.945
1503.2200, -60.927
1503.2400, -60.893
1503.2600, -60.906
1503.2800, -60.917
1503.3000, -60.925
1503.3200, -60.906
1503.3400, -60.911
1503.3600, -60.881
1503.3800, -60.881
1503.4000, -60.890
1503.4200, -60.834
1503.4400, -60.851
1503.4600, -60.872
1503.4800, -60.834
1503.5000, -60.855
1503.5200, -60.819
1503.5400, -60.843
1503.5600, -60.789
1503.5800, -60.820
1503.6000, -60.828
1503.6200, -60.783
1503.6400, -60.765
1503.6600, -60.781
1503.6800, -60.755
1503.7000, -60.759
1503.7200, -60.778
1503.7400, -60.733
1503.7600, -60.775
1503.7800, -60.717
1503.8000, -60.738
1503.8200, -60.695
1503.8400, -60.721
1503.8600, -60.730
1503.8800, -60.718
1503.9000, -60.715
1503.9200, -60.705
1503.9400, -60.681
1503.9600, -60.640
1503.9800, -60.693
1504.0000, -60.674
1504.0200, -60.659
1504.0400, -60.649
1504.0600, -60.648
1504.0800, -60.651
1504.1000, -60.611
1504.1200, -60.622
1504.1400, -60.590
1504.1600, -60.598
1504.1800, -60.617
1504.2000, -60.555
1504.2200, -60.566
1504.2400, -60.587
1504.2600, -60.573
1504.2800, -60.559
1504.3000, -60.550
1504.3200, -60.561
1504.3400, -60.535
1504.3600, -60.552
1504.3800, -60.524
1504.4000, -60.551
1504.4200, -60.530
1504.4400, -60.495
1504.4600, -60.503
1504.4800, -60.471
1504.5000, -60.482
1504.5200, -60.473
1504.5400, -60.481
1504.5600, -60.448
1504.5800, -60.469
1504.6000, -60.431
1504.6200, -60.442
1504.6400, -60.431
1504.6600, -60.425
1504.6800, -60.439
1504.7000, -60.393
1504.7200, -60.406
1504.7400, -60.411
1504.7600, -60.379
1504.7800, -60.373
1504.8000, -60.377
1504.8200, -60.363
1504.8400, -60.355
1504.8600, -60.342
1504.8800, -60.349
1504.9000, -60.355
1504.9200, -60.330
1504.9400, -60.315
1504.9600, -60.292
1504.9800, -60.298
1505.0000, -60.278
1505.0200, -60.294
1505.0400, -60.292
1505.0600, -60.297
1505.0800, -60.258
1505.1000, -60.252
1505.1200, -60.246
1505.1400, -60.239
1505.1600, -60.235
1505.1800, -60.229
1505.2000, -60.226
1505.2200, -60.182
1505.2400, -60.224
1505.2600, -60.193
1505.2800, -60.183
1505.3000, -60.179
1505.3200, -60.179
1505.3400, -60.189
1505.3600, -60.139
1505.3800, -60.152
1505.4000, -60.162
1505.4200, -60.137
1505.4400, -60.115
1505.4600, -60.115
1505.4800, -60.124
1505.5000, -60.112
1505.5200, -60.085
1505.5400, -60.099
1505.5600, -60.074
1505.5800, -60.055
1505.6000, -60.074
1505.6200, -60.064
1505.6400, -60.044
1505.6600, -60.046
1505.6800, -60.033
1505.7000, -60.018
1505.7200, -60.027
1505.7400, -60.003
1505.7600, -60.009
1505.7800, -59.991
1505.8000, -59.992
1505.8200, -59.991
1505.8400, -59.981
1505.8600, -59.951
1505.8800, -59.969
1505.9000, -59.961
1505.9200, -59.939
1505.9400, -59.927
1505.9600, -59.926
1505.9800, -59.927
1506.0000, -59.902
1506.0200, -59.895
1506.0400, -59.904
1506.0600, -59.884
1506.0800, -59.894
1506.1000, -59.881
1506.1200, -59.869
1506.1400, -59.853
1506.1600, -59.843
1506.1800, -59.845
1506.2000, -59.825
1506.2200, -59.819
1506.2400, -59.812
1506.2600, -59.818
1506.2800, -59.790
1506.3000, -59.795
1506.3200, -59.803
1506.3400, -59.773
1506.3600, -59.753
1506.3800, -59.791
1506.4000, -59.752
1506.4200, -59.758
1506.4400, -59.732
1506.4600, -59.727
1506.4800, -59.700
1506.5000, -59.713
1506.5200, -59.700
1506.5400, -59.692
1506.5600, -59.679
1506.5800, -59.691
1506.6000, -59.674
1506.6200, -59.665
1506.6400, -59.664
1506.6600, -59.660
1506.6800, -59.655
1506.7000, -59.621
1506.7200, -59.625
1506.7400, -59.614
1506.7600, -59.601
1506.7800, -59.597
1506.8000, -59.590
1506.8200, -59.576
1506.8400, -59.593
1506.8600, -59.555
1506.8800, -59.571
1506.9000, -59.563
1506.9200, -59.556
1506.9400, -59.552
1506.9600, -59.520
1506.9800, -59.521
1507.0000, -59.498
1507.0200, -59.512
1507.0400, -59.493
1507.0600, -59.499
1507.0800, -59.478
1507.1000, -59.494
1507.1200, -59.466
1507.1400, -59.468
1507.1600, -59.449
1507.1800, -59.434
1507.2000, -59.441
1507.2200, -59.440
1507.2400, -59.432
1507.2600, -59.430
1507.2800, -59.418
1507.3000, -59.403
1507.3200, -59.380
1507.3400, -59.382
1507.3600, -59.367
1507.3800, -59.364
1507.4000, -59.361
1507.4200, -59.326
1507.4400, -59.337
1507.4600, -59.328
1507.4800, -59.332
1507.5000, -59.293
1507.5200, -59.308
1507.5400, -59.295
1507.5600, -59.285
1507.5800, -59.283
1507.6000, -59.275
1507.6200, -59.277
1507.6400, -59.241
1507.6600, -59.245
1507.6800, -59.243
1507.7000, -59.228
1507.7200, -59.218
1507.7400, -59.212
1507.7600, -59.215
1507.7800, -59.184
1507.8000, -59.182
1507.8200, -59.177
1507.8400, -59.173
1507.8600, -59.159
1507.8800, -59.152
1507.9000, -59.159
1507.9200, -59.123
1507.9400, -59.129
1507.9600, -59.110
1507.9800, -59.117
1508.0000, -59.081
1508.0200, -59.115
1508.0400, -59.079
1508.0600, -59.085
1508.0800, -59.070
1508.1000, -59.069
1508.1200, -59.045
1508.1400, -59.054
1508.1600, -59.038
1508.1800, -59.039
1508.2000, -59.016
1508.2200, -59.007
1508.2400, -59.022
1508.2600, -59.005
1508.2800, -59.010
1508.3000, -58.983
1508.3200, -58.979
1508.3400, -58.963
1508.3600, -58.972
1508.3800, -58.936
1508.4000, -58.928
1508.4200, -58.936
1508.4400, -58.914
1508.4600, -58.922
1508.4800, -58.892
1508.5000, -58.904
1508.5200, -58.895
1508.5400, -58.875
1508.5600, -58.888
1508.5800, -58.881
1508.6000, -58.856
1508.6200, -58.831
1508.6400, -58.839
1508.6600, -58.832
1508.6800, -58.832
1508.7000, -58.814
1508.7200, -58.816
1508.7400, -58.804
1508.7600, -58.787
1508.7800, -58.780
1508.8000, -58.795
1508.8200, -58.763
1508.8400, -58.782
1508.8600, -58.752
1508.8800, -58.732
1508.9000, -58.733
1508.9200, -58.726
1508.9400, -58.715
1508.9600, -58.703
1508.9800, -58.685
1509.0000, -58.699
1509.0200, -58.677
1509.0400, -58.673
1509.0600, -58.677
1509.0800, -58.640
1509.1000, -58.661
1509.1200, -58.655
1509.1400, -58.635
1509.1600, -58.612
1509.1800, -58.611
1509.2000, -58.599
1509.2200, -58.590
1509.2400, -58.580
1509.2600, -58.580
1509.2800, -58.560
1509.3000, -58.557
1509.3200, -58.529
1509.3400, -58.542
1509.3600, -58.502
1509.3800, -58.515
1509.4000, -58.498
1509.4200, -58.484
1509.4400, -58.481
1509.4600, -58.483
1509.4800, -58.481
1509.5000, -58.463
1509.5200, -58.452
1509.5400, -58.444
1509.5600, -58.417
1509.5800, -58.413
1509.6000, -58.416
1509.6200, -58.420
1509.6400, -58.388
1509.6600, -58.405
1509.6800, -58.367
1509.7000, -58.368
1509.7200, -58.370
1509.7400, -58.336
1509.7600, -58.350
1509.7800, -58.343
1509.8000, -58.327
1509.8200, -58.329
1509.8400, -58.307
1509.8600, -58.305
1509.8800, -58.277
1509.9000, -58.268
1509.9200, -58.283
1509.9400, -58.275
1509.9600, -58.260
1509.9800, -58.235
1510.0000, -58.258
1510.0200, -58.225
1510.0400, -58.207
1510.0600, -58.215
1510.0800, -58.193
1510.1000, -58.188
1510.1200, -58.168
1510.1400, -58.156
1510.1600, -58.178
1510.1800, -58.147
1510.2000, -58.138
1510.2200, -58.137
1510.2400, -58.129
1510.2600, -58.102
1510.2800, -58.077
1510.3000, -58.076
1510.3200, -58.075
1510.3400, -58.048
1510.3600, -58.036
1510.3800, -58.031
1510.4000, -58.033
1510.4200, -58.031
1510.4400, -58.018
1510.4600, -58.011
1510.4800, -57.972
1510.5000, -57.977
1510.5200, -57.961
1510.5400, -57.954
1510.5600, -57.947
1510.5800, -57.922
1510.6000, -57.925
1510.6200, -57.925
1510.6400, -57.906
1510.6600, -57.893
1510.6800, -57.883
1510.7000, -57.868
1510.7200, -57.856
1510.7400, -57.854
1510.7600, -57.837
1510.7800, -57.836
1510.8000, -57.820
1510.8200, -57.805
1510.8400, -57.801
1510.8600, -57.786
1510.8800, -57.781
1510.9000, -57.768
1510.9200, -57.753
1510.9400, -57.745
1510.9600, -57.745
1510.9800, -57.717
1511.0000, -57.714
1511.0200, -57.711
1511.0400, -57.699
1511.0600, -57.681
1511.0800, -57.667
1511.1000, -57.668
1511.1200, -57.643
1511.1400, -57.634
1511.1600, -57.642
1511.1800, -57.622
1511.2000, -57.603
1511.2200, -57.575
1511.2400, -57.593
1511.2600, -57.555
1511.2800, -57.563
1511.3000, -57.544
1511.3200, -57.536
1511.3400, -57.513
1511.3600, -57.528
1511.3800, -57.502
1511.4000, -57.492
1511.4200, -57.497
1511.4400, -57.457
1511.4600, -57.446
1511.4800, -57.448
1511.5000, -57.427
1511.5200, -57.423
1511.5400, -57.397
1511.5600, -57.396
1511.5800, -57.391
1511.6000, -57.361
1511.6200, -57.372
1511.6400, -57.351
1511.6600, -57.351
1511.6800, -57.318
1511.7000, -57.328
1511.7200, -57.315
1511.7400, -57.306
1511.7600, -57.285
1511.7800, -57.275
1511.8000, -57.257
1511.8200, -57.250
1511.8400, -57.247
1511.8600, -57.228
1511.8800, -57.216
1511.9000, -57.198
1511.9200, -57.193
1511.9400, -57.184
1511.9600, -57.179
1511.9800, -57.160
1512.0000, -57.155
1512.0200, -57.135
1512.0400, -57.114
1512.0600, -57.123
1512.0800, -57.109
1512.1000, -57.100
1512.1200, -57.089
1512.1400, -57.074
1512.1600, -57.059
1512.1800, -57.048
1512.2000, -57.032
1512.2200, -57.022
1512.2400, -57.021
1512.2600, -57.008
1512.2800, -56.980
1512.3000, -56.981
1512.3200, -56.978
1512.3400, -56.952
1512.3600, -56.950
1512.3800, -56.946
1512.4000, -56.941
1512.4200, -56.909
1512.4400, -56.907
1512.4600, -56.890
1512.4800, -56.878
1512.5000, -56.863
1512.5200, -56.858
1512.5400, -56.839
1512.5600, -56.826
1512.5800, -56.814
1512.6000, -56.810
1512.6200, -56.796
1512.6400, -56.781
1512.6600, -56.785
1512.6800, -56.765
1512.7000, -56.752
1512.7200, -56.733
1512.7400, -56.727
1512.7600, -56.718
1512.7800, -56.717
1512.8000, -56.686
1512.8200, -56.681
1512.8400, -56.671
1512.8600, -56.660
1512.8800, -56.650
1512.9000, -56.631
1512.9200, -56.634
1512.9400, -56.621
1512.9600, -56.605
1512.9800, -56.599
1513.0000, -56.586
1513.0200, -56.570
1513.0400, -56.548
1513.0600, -56.546
1513.0800, -56.529
1513.1000, -56.520
1513.1200, -56.500
1513.1400, -56.493
1513.1600, -56.485
1513.1800, -56.474
1513.2000, -56.461
1513.2200, -56.446
1513.2400, -56.427
1513.2600, -56.436
1513.2800, -56.417
1513.3000, -56.395
1513.3200, -56.382
1513.3400, -56.379
1513.3600, -56.349
1513.3800, -56.348
1513.4000, -56.331
1513.4200, -56.320
1513.4400, -56.310
1513.4600, -56.295
1513.4800, -56.290
1513.5000, -56.263
1513.5200, -56.263
1513.5400, -56.248
1513.5600, -56.235
1513.5800, -56.219
1513.6000, -56.220
1513.6200, -56.201
1513.6400, -56.188
1513.6600, -56.169
1513.6800, -56.161
1513.7000, -56.149
1513.7200, -56.139
1513.7400, -56.129
1513.7600, -56.116
1513.7800, -56.101
1513.8000, -56.102
1513.8200, -56.077
1513.8400, -56.063
1513.8600, -56.039
1513.8800, -56.048
1513.9000, -56.017
1513.9200, -56.018
1513.9400, -55.998
1513.9600, -55.999
1513.9800, -55.979
1514.0000, -55.974
1514.0200, -55.957
1514.0400, -55.939
1514.0600, -55.909
1514.0800, -55.905
1514.1000, -55.889
1514.1200, -55.883
1514.1400, -55.866
1514.1600, -55.859
1514.1800, -55.842
1514.2000, -55.830
1514.2200, -55.829
1514.2400, -55.797
1514.2600, -55.795
1514.2800, -55.783
1514.3000, -55.755
1514.3200, -55.755
1514.3400, -55.739
1514.3600, -55.724
1514.3800, -55.705
1514.4000, -55.701
1514.4200, -55.681
1514.4400, -55.668
1514.4600, -55.661
1514.4800, -55.644
1514.5000, -55.624
1514.5200, -55.613
1514.5400, -55.611
1514.5600, -55.605
1514.5800, -55.582
1514.6000, -55.561
1514.6200, -55.545
1514.6400, -55.544
1514.6600, -55.535
1514.6800, -55.519
1514.7000, -55.512
1514.7200, -55.483
1514.7400, -55.467
1514.7600, -55.456
1514.7800, -55.445
1514.8000, -55.443
1514.8200, -55.420
1514.8400, -55.413
1514.8600, -55.411
1514.8800, -55.387
1514.9000, -55.363
1514.9200, -55.363
1514.9400, -55.340
1514.9600, -55.341
1514.9800, -55.310
1515.0000, -55.311
1515.0200, -55.266
1515.0400, -55.263
1515.0600, -55.254
1515.0800, -55.232
1515.1000, -55.222
1515.1200, -55.205
1515.1400, -55.192
1515.1600, -55.186
1515.1800, -55.165
1515.2000, -55.162
1515.2200, -55.151
1515.2400, -55.121
1515.2600, -55.102
1515.2800, -55.088
1515.3000, -55.079
1515.3200, -55.063
1515.3400, -55.049
1515.3600, -55.036
1515.3800, -55.016
1515.4000, -55.009
1515.4200, -54.993
1515.4400, -54.984
1515.4600, -54.948
1515.4800, -54.946
1515.5000, -54.941
1515.5200, -54.927
1515.5400, -54.904
1515.5600, -54.898
1515.5800, -54.877
1515.6000, -54.861
1515.6200, -54.856
1515.6400, -54.842
1515.6600, -54.820
1515.6800, -54.811
1515.7000, -54.795
1515.7200, -54.776
1515.7400, -54.765
1515.7600, -54.752
1515.7800, -54.727
1515.8000, -54.722
1515.8200, -54.707
1515.8400, -54.683
1515.8600, -54.686
1515.8800, -54.667
1515.9000, -54.657
1515.9200, -54.636
1515.9400, -54.621
1515.9600, -54.599
1515.9800, -54.577
1516.0000, -54.562
1516.0200, -54.540
1516.0400, -54.530
1516.0600, -54.515
1516.0800, -54.498
1516.1000, -54.482
1516.1200, -54.468
1516.1400, -54.457
1516.1600, -54.442
1516.1800, -54.418
1516.2000, -54.397
1516.2200, -54.385
1516.2400, -54.373
1516.2600, -54.357
1516.2800, -54.339
1516.3000, -54.326
1516.3200, -54.320
1516.3400, -54.293
1516.3600, -54.280
1516.3800, -54.259
1516.4000, -54.242
1516.4200, -54.232
1516.4400, -54.216
1516.4600, -54.193
1516.4800, -54.179
1516.5000, -54.155
1516.5200, -54.145
1516.5400, -54.133
1516.5600, -54.116
1516.5800, -54.096
1516.6000, -54.085
1516.6200, -54.068
1516.6400, -54.046
1516.6600, -54.029
1516.6800, -54.014
1516.7000, -53.992
1516.7200, -53.981
1516.7400, -53.963
1516.7600, -53.951
1516.7800, -53.924
1516.8000, -53.916
1516.8200, -53.900
1516.8400, -53.883
1516.8600, -53.872
1516.8800, -53.848
1516.9000, -53.819
1516.9200, -53.800
1516.9400, -53.790
1516.9600, -53.767
1516.9800, -53.755
1517.0000, -53.728
1517.0200, -53.710
1517.0400, -53.697
1517.0600, -53.678
1517.0800, -53.664
1517.1000, -53.651
1517.1200, -53.631
1517.1400, -53.598
1517.1600, -53.581
1517.1800, -53.571
1517.2000, -53.542
1517.2200, -53.534
1517.2400, -53.508
1517.2600, -53.488
1517.2800, -53.480
1517.3000, -53.458
1517.3200, -53.443
1517.3400, -53.429
1517.3600, -53.411
1517.3800, -53.395
1517.4000, -53.370
1517.4200, -53.349
1517.4400, -53.329
1517.4600, -53.314
1517.4800, -53.291
1517.5000, -53.280
1517.5200, -53.269
1517.5400, -53.248
1517.5600, -53.219
1517.5800, -53.204
1517.6000, -53.183
1517.6200, -53.163
1517.6400, -53.143
1517.6600, -53.123
1517.6800, -53.104
1517.7000, -53.079
1517.7200, -53.051
1517.7400, -53.045
1517.7600, -53.023
1517.7800, -53.009
1517.8000, -52.986
1517.8200, -52.970
1517.8400, -52.944
1517.8600, -52.914
1517.8800, -52.890
1517.9000, -52.876
1517.9200, -52.852
1517.9400, -52.835
1517.9600, -52.824
1517.9800, -52.798
1518.0000, -52.784
1518.0200, -52.763
1518.0400, -52.746
1518.0600, -52.718
1518.0800, -52.680
1518.1000, -52.673
1518.1200, -52.650
1518.1400, -52.629
1518.1600, -52.605
1518.1800, -52.580
1518.2000, -52.568
1518.2200, -52.540
1518.2400, -52.523
1518.2600, -52.505
1518.2800, -52.483
1518.3000, -52.454
1518.3200, -52.448
1518.3400, -52.428
1518.3600, -52.402
1518.3800, -52.379
1518.4000, -52.351
1518.4200, -52.333
1518.4400, -52.318
1518.4600, -52.293
1518.4800, -52.267
1518.5000, -52.241
1518.5200, -52.217
1518.5400, -52.198
1518.5600, -52.178
1518.5800, -52.152
1518.6000, -52.128
1518.6200, -52.101
1518.6400, -52.094
1518.6600, -52.057
1518.6800, -52.047
1518.7000, -52.017
1518.7200, -51.994
1518.7400, -51.976
1518.7600, -51.957
1518.7800, -51.932
1518.8000, -51.897
1518.8200, -51.879
1518.8400, -51.852
1518.8600, -51.821
1518.8800, -51.804
1518.9000, -51.778
1518.9200, -51.745
1518.9400, -51.739
1518.9600, -51.707
1518.9800, -51.697
1519.0000, -51.671
1519.0200, -51.633
1519.0400, -51.611
1519.0600, -51.588
1519.0800, -51.564
1519.1000, -51.537
1519.1200, -51.511
1519.1400, -51.486
1519.1600, -51.461
1519.1800, -51.437
1519.2000, -51.416
1519.2200, -51.389
1519.2400, -51.360
1519.2600, -51.347
1519.2800, -51.314
1519.3000, -51.279
1519.3200, -51.253
1519.3400, -51.231
1519.3600, -51.208
1519.3800, -51.188
1519.4000, -51.157
1519.4200, -51.129
1519.4400, -51.109
1519.4600, -51.072
1519.4800, -51.045
1519.5000, -51.026
1519.5200, -50.995
1519.5400, -50.969
1519.5600, -50.944
1519.5800, -50.920
1519.6000, -50.880
1519.6200, -50.864
1519.6400, -50.845
1519.6600, -50.816
1519.6800, -50.788
1519.7000, -50.753
1519.7200, -50.727
1519.7400, -50.681
1519.7600, -50.665
1519.7800, -50.637
1519.8000, -50.608
1519.8200, -50.577
1519.8400, -50.562
1519.8600, -50.522
1519.8800, -50.513
1519.9000, -50.477
1519.9200, -50.450
1519.9400, -50.420
1519.9600, -50.376
1519.9800, -50.352
1520.0000, -50.323
1520.0200, -50.299
1520.0400, -50.262
1520.0600, -50.231
1520.0800, -50.193
1520.1000, -50.167
1520.1200, -50.138
1520.1400, -50.106
1520.1600, -50.082
1520.1800, -50.046
1520.2000, -50.027
1520.2200, -50.000
1520.2400, -49.963
1520.2600, -49.931
1520.2800, -49.899
1520.3000, -49.872
1520.3200, -49.843
1520.3400, -49.813
1520.3600, -49.777
1520.3800, -49.751
1520.4000, -49.714
1520.4200, -49.684
1520.4400, -49.650
1520.4600, -49.620
1520.4800, -49.588
1520.5000, -49.562
1520.5200, -49.541
1520.5400, -49.483
1520.5600, -49.468
1520.5800, -49.430
1520.6000, -49.393
1520.6200, -49.373
