70BCSV 	
// AQ6370B OPTICAL SPECTRUM ANALYZER //                 
25
"CTRWL",1550.000000
"SPAN", 100.000000
"START WL",1500.000000
"STOP WL",1600.000000
"WLFREQ", 0
"REFL",-28.8
"LSCL", 5.0
"RESLN",0.100
"AVG",   1
"SMPLAUTO",      0
"SMPL",       5001
"SMPLINTVL",0.0200
"HIGH1"
"MEAS"
"LSUNT",0
"NMSKH","OFF"
"RESCOR",0
"RESPARM", 9050
"FREQPARM", 9050






"[TRACE DATA]"
1500.0000, -61.698
1500.0200, -61.720
1500.0400, -61.733
1500.0600, -61.700
1500.0800, -61.708
1500.1000, -61.736
1500.1200, -61.666
1500.1400, -61.701
1500.1600, -61.663
1500.1800, -61.699
1500.2000, -61.661
1500.2200, -61.620
1500.2400, -61.698
1500.2600, -61.602
1500.2800, -61.680
1500.3000, -61.637
1500.3200, -61.608
1500.3400, -61.646
1500.3600, -61.635
1500.3800, -61.618
1500.4000, -61.624
1500.4200, -61.563
1500.4400, -61.576
1500.4600, -61.613
1500.4800, -61.579
1500.5000, -61.586
1500.5200, -61.561
1500.5400, -61.565
1500.5600, -61.541
1500.5800, -61.539
1500.6000, -61.586
1500.6200, -61.568
1500.6400, -61.522
1500.6600, -61.555
1500.6800, -61.498
1500.7000, -61.562
1500.7200, -61.504
1500.7400, -61.536
1500.7600, -61.500
1500.7800, -61.505
1500.8000, -61.489
1500.8200, -61.505
1500.8400, -61.508
1500.8600, -61.467
1500.8800, -61.489
1500.9000, -61.457
1500.9200, -61.468
1500.9400, -61.434
1500.9600, -61.472
1500.9800, -61.443
1501.0000, -61.431
1501.0200, -61.428
1501.0400, -61.416
1501.0600, -61.407
1501.0800, -61.413
1501.1000, -61.449
1501.1200, -61.370
1501.1400, -61.404
1501.1600, -61.382
1501.1800, -61.375
1501.2000, -61.385
1501.2200, -61.340
1501.2400, -61.384
1501.2600, -61.362
1501.2800, -61.357
1501.3000, -61.328
1501.3200, -61.335
1501.3400, -61.382
1501.3600, -61.337
1501.3800, -61.308
1501.4000, -61.326
1501.4200, -61.292
1501.4400, -61.295
1501.4600, -61.337
1501.4800, -61.309
1501.5000, -61.287
1501.5200, -61.244
1501.5400, -61.259
1501.5600, -61.272
1501.5800, -61.253
1501.6000, -61.275
1501.6200, -61.297
1501.6400, -61.248
1501.6600, -61.255
1501.6800, -61.228
1501.7000, -61.234
1501.7200, -61.243
1501.7400, -61.230
1501.7600, -61.224
1501.7800, -61.249
1501.8000, -61.199
1501.8200, -61.188
1501.8400, -61.219
1501.8600, -61.212
1501.8800, -61.203
1501.9000, -61.192
1501.9200, -61.187
1501.9400, -61.198
1501.9600, -61.174
1501.9800, -61.148
1502.0000, -61.152
1502.0200, -61.155
1502.0400, -61.129
1502.0600, -61.129
1502.0800, -61.137
1502.1000, -61.111
1502.1200, -61.086
1502.1400, -61.132
1502.1600, -61.051
1502.1800, -61.110
1502.2000, -61.080
1502.2200, -61.080
1502.2400, -61.063
1502.2600, -61.057
1502.2800, -61.061
1502.3000, -61.035
1502.3200, -61.068
1502.3400, -61.032
1502.3600, -61.028
1502.3800, -61.009
1502.4000, -61.001
1502.4200, -61.062
1502.4400, -61.013
1502.4600, -61.001
1502.4800, -60.975
1502.5000, -60.981
1502.5200, -60.979
1502.5400, -60.980
1502.5600, -60.933
1502.5800, -60.953
1502.6000, -60.951
1502.6200, -60.993
1502.6400, -60.920
1502.6600, -60.936
1502.6800, -60.920
1502.7000, -60.916
1502.7200, -60.920
1502.7400, -60.896
1502.7600, -60.914
1502.7800, -60.913
1502.8000, -60.879
1502.8200, -60.899
1502.8400, -60.885
1502.8600, -60.842
1502.8800, -60.860
1502.9000, -60.854
1502.9200, -60.861
1502.9400, -60.837
1502.9600, -60.872
1502.9800, -60.855
1503.0000, -60.812
1503.0200, -60.797
1503.0400, -60.793
1503.0600, -60.831
1503.0800, -60.776
1503.1000, -60.781
1503.1200, -60.801
1503.1400, -60.766
1503.1600, -60.747
1503.1800, -60.790
1503.2000, -60.765
1503.2200, -60.747
1503.2400, -60.718
1503.2600, -60.715
1503.2800, -60.738
1503.3000, -60.714
1503.3200, -60.709
1503.3400, -60.703
1503.3600, -60.707
1503.3800, -60.721
1503.4000, -60.648
1503.4200, -60.675
1503.4400, -60.683
1503.4600, -60.654
1503.4800, -60.647
1503.5000, -60.688
1503.5200, -60.635
1503.5400, -60.638
1503.5600, -60.634
1503.5800, -60.643
1503.6000, -60.638
1503.6200, -60.599
1503.6400, -60.583
1503.6600, -60.630
1503.6800, -60.587
1503.7000, -60.549
1503.7200, -60.581
1503.7400, -60.573
1503.7600, -60.534
1503.7800, -60.586
1503.8000, -60.551
1503.8200, -60.525
1503.8400, -60.574
1503.8600, -60.531
1503.8800, -60.501
1503.9000, -60.542
1503.9200, -60.539
1503.9400, -60.512
1503.9600, -60.484
1503.9800, -60.496
1504.0000, -60.469
1504.0200, -60.489
1504.0400, -60.458
1504.0600, -60.482
1504.0800, -60.451
1504.1000, -60.430
1504.1200, -60.434
1504.1400, -60.439
1504.1600, -60.418
1504.1800, -60.395
1504.2000, -60.398
1504.2200, -60.387
1504.2400, -60.406
1504.2600, -60.385
1504.2800, -60.376
1504.3000, -60.373
1504.3200, -60.353
1504.3400, -60.352
1504.3600, -60.370
1504.3800, -60.329
1504.4000, -60.374
1504.4200, -60.336
1504.4400, -60.304
1504.4600, -60.328
1504.4800, -60.315
1504.5000, -60.273
1504.5200, -60.279
1504.5400, -60.308
1504.5600, -60.258
1504.5800, -60.266
1504.6000, -60.248
1504.6200, -60.266
1504.6400, -60.240
1504.6600, -60.232
1504.6800, -60.231
1504.7000, -60.231
1504.7200, -60.196
1504.7400, -60.224
1504.7600, -60.239
1504.7800, -60.195
1504.8000, -60.201
1504.8200, -60.226
1504.8400, -60.140
1504.8600, -60.158
1504.8800, -60.215
1504.9000, -60.150
1504.9200, -60.157
1504.9400, -60.122
1504.9600, -60.132
1504.9800, -60.149
1505.0000, -60.127
1505.0200, -60.078
1505.0400, -60.123
1505.0600, -60.084
1505.0800, -60.073
1505.1000, -60.066
1505.1200, -60.062
1505.1400, -60.071
1505.1600, -60.068
1505.1800, -60.024
1505.2000, -60.036
1505.2200, -60.035
1505.2400, -60.043
1505.2600, -59.980
1505.2800, -59.985
1505.3000, -59.980
1505.3200, -59.981
1505.3400, -59.967
1505.3600, -59.958
1505.3800, -59.964
1505.4000, -59.965
1505.4200, -59.926
1505.4400, -59.928
1505.4600, -59.932
1505.4800, -59.935
1505.5000, -59.923
1505.5200, -59.891
1505.5400, -59.894
1505.5600, -59.903
1505.5800, -59.897
1505.6000, -59.865
1505.6200, -59.866
1505.6400, -59.877
1505.6600, -59.858
1505.6800, -59.856
1505.7000, -59.845
1505.7200, -59.844
1505.7400, -59.835
1505.7600, -59.811
1505.7800, -59.818
1505.8000, -59.809
1505.8200, -59.802
1505.8400, -59.814
1505.8600, -59.784
1505.8800, -59.772
1505.9000, -59.775
1505.9200, -59.762
1505.9400, -59.752
1505.9600, -59.732
1505.9800, -59.730
1506.0000, -59.737
1506.0200, -59.717
1506.0400, -59.708
1506.0600, -59.689
1506.0800, -59.696
1506.1000, -59.688
1506.1200, -59.677
1506.1400, -59.675
1506.1600, -59.662
1506.1800, -59.657
1506.2000, -59.638
1506.2200, -59.635
1506.2400, -59.627
1506.2600, -59.607
1506.2800, -59.609
1506.3000, -59.610
1506.3200, -59.599
1506.3400, -59.584
1506.3600, -59.567
1506.3800, -59.573
1506.4000, -59.556
1506.4200, -59.562
1506.4400, -59.544
1506.4600, -59.556
1506.4800, -59.539
1506.5000, -59.535
1506.5200, -59.510
1506.5400, -59.511
1506.5600, -59.493
1506.5800, -59.489
1506.6000, -59.488
1506.6200, -59.465
1506.6400, -59.473
1506.6600, -59.457
1506.6800, -59.440
1506.7000, -59.456
1506.7200, -59.454
1506.7400, -59.435
1506.7600, -59.408
1506.7800, -59.429
1506.8000, -59.405
1506.8200, -59.411
1506.8400, -59.388
1506.8600, -59.384
1506.8800, -59.397
1506.9000, -59.369
1506.9200, -59.344
1506.9400, -59.358
1506.9600, -59.344
1506.9800, -59.328
1507.0000, -59.342
1507.0200, -59.303
1507.0400, -59.305
1507.0600, -59.291
1507.0800, -59.316
1507.1000, -59.301
1507.1200, -59.267
1507.1400, -59.268
1507.1600, -59.255
1507.1800, -59.236
1507.2000, -59.249
1507.2200, -59.242
1507.2400, -59.235
1507.2600, -59.214
1507.2800, -59.217
1507.3000, -59.200
1507.3200, -59.191
1507.3400, -59.197
1507.3600, -59.182
1507.3800, -59.153
1507.4000, -59.175
1507.4200, -59.157
1507.4400, -59.151
1507.4600, -59.138
1507.4800, -59.124
1507.5000, -59.124
1507.5200, -59.121
1507.5400, -59.090
1507.5600, -59.080
1507.5800, -59.084
1507.6000, -59.082
1507.6200, -59.072
1507.6400, -59.068
1507.6600, -59.058
1507.6800, -59.050
1507.7000, -59.043
1507.7200, -59.025
1507.7400, -59.026
1507.7600, -59.016
1507.7800, -59.012
1507.8000, -58.998
1507.8200, -59.021
1507.8400, -58.963
1507.8600, -58.973
1507.8800, -58.966
1507.9000, -58.938
1507.9200, -58.948
1507.9400, -58.949
1507.9600, -58.925
1507.9800, -58.930
1508.0000, -58.905
1508.0200, -58.887
1508.0400, -58.894
1508.0600, -58.890
1508.0800, -58.880
1508.1000, -58.883
1508.1200, -58.855
1508.1400, -58.831
1508.1600, -58.845
1508.1800, -58.834
1508.2000, -58.820
1508.2200, -58.809
1508.2400, -58.800
1508.2600, -58.803
1508.2800, -58.804
1508.3000, -58.788
1508.3200, -58.780
1508.3400, -58.764
1508.3600, -58.785
1508.3800, -58.744
1508.4000, -58.753
1508.4200, -58.759
1508.4400, -58.725
1508.4600, -58.720
1508.4800, -58.706
1508.5000, -58.685
1508.5200, -58.672
1508.5400, -58.691
1508.5600, -58.681
1508.5800, -58.683
1508.6000, -58.658
1508.6200, -58.661
1508.6400, -58.639
1508.6600, -58.642
1508.6800, -58.628
1508.7000, -58.628
1508.7200, -58.630
1508.7400, -58.596
1508.7600, -58.600
1508.7800, -58.580
1508.8000, -58.598
1508.8200, -58.560
1508.8400, -58.567
1508.8600, -58.576
1508.8800, -58.527
1508.9000, -58.545
1508.9200, -58.518
1508.9400, -58.506
1508.9600, -58.493
1508.9800, -58.503
1509.0000, -58.476
1509.0200, -58.487
1509.0400, -58.467
1509.0600, -58.450
1509.0800, -58.467
1509.1000, -58.448
1509.1200, -58.418
1509.1400, -58.436
1509.1600, -58.399
1509.1800, -58.406
1509.2000, -58.389
1509.2200, -58.384
1509.2400, -58.387
1509.2600, -58.390
1509.2800, -58.347
1509.3000, -58.350
1509.3200, -58.346
1509.3400, -58.335
1509.3600, -58.317
1509.3800, -58.306
1509.4000, -58.306
1509.4200, -58.301
1509.4400, -58.290
1509.4600, -58.288
1509.4800, -58.269
1509.5000, -58.259
1509.5200, -58.240
1509.5400, -58.239
1509.5600, -58.256
1509.5800, -58.224
1509.6000, -58.215
1509.6200, -58.190
1509.6400, -58.194
1509.6600, -58.198
1509.6800, -58.184
1509.7000, -58.158
1509.7200, -58.174
1509.7400, -58.158
1509.7600, -58.136
1509.7800, -58.123
1509.8000, -58.149
1509.8200, -58.103
1509.8400, -58.099
1509.8600, -58.089
1509.8800, -58.071
1509.9000, -58.082
1509.9200, -58.056
1509.9400, -58.058
1509.9600, -58.078
1509.9800, -58.042
1510.0000, -58.014
1510.0200, -58.012
1510.0400, -58.010
1510.0600, -58.001
1510.0800, -57.990
1510.1000, -57.988
1510.1200, -57.966
1510.1400, -57.969
1510.1600, -57.943
1510.1800, -57.939
1510.2000, -57.928
1510.2200, -57.925
1510.2400, -57.933
1510.2600, -57.898
1510.2800, -57.906
1510.3000, -57.874
1510.3200, -57.873
1510.3400, -57.851
1510.3600, -57.833
1510.3800, -57.847
1510.4000, -57.836
1510.4200, -57.806
1510.4400, -57.793
1510.4600, -57.809
1510.4800, -57.789
1510.5000, -57.773
1510.5200, -57.771
1510.5400, -57.751
1510.5600, -57.750
1510.5800, -57.733
1510.6000, -57.712
1510.6200, -57.719
1510.6400, -57.710
1510.6600, -57.686
1510.6800, -57.677
1510.7000, -57.677
1510.7200, -57.648
1510.7400, -57.648
1510.7600, -57.620
1510.7800, -57.633
1510.8000, -57.607
1510.8200, -57.578
1510.8400, -57.577
1510.8600, -57.579
1510.8800, -57.569
1510.9000, -57.565
1510.9200, -57.554
1510.9400, -57.522
1510.9600, -57.543
1510.9800, -57.518
1511.0000, -57.501
1511.0200, -57.490
1511.0400, -57.469
1511.0600, -57.470
1511.0800, -57.449
1511.1000, -57.446
1511.1200, -57.452
1511.1400, -57.421
1511.1600, -57.415
1511.1800, -57.401
1511.2000, -57.389
1511.2200, -57.390
1511.2400, -57.369
1511.2600, -57.351
1511.2800, -57.368
1511.3000, -57.331
1511.3200, -57.324
1511.3400, -57.309
1511.3600, -57.305
1511.3800, -57.281
1511.4000, -57.273
1511.4200, -57.273
1511.4400, -57.258
1511.4600, -57.246
1511.4800, -57.230
1511.5000, -57.227
1511.5200, -57.209
1511.5400, -57.185
1511.5600, -57.216
1511.5800, -57.168
1511.6000, -57.163
1511.6200, -57.176
1511.6400, -57.132
1511.6600, -57.134
1511.6800, -57.127
1511.7000, -57.107
1511.7200, -57.113
1511.7400, -57.087
1511.7600, -57.075
1511.7800, -57.039
1511.8000, -57.047
1511.8200, -57.055
1511.8400, -57.034
1511.8600, -56.996
1511.8800, -57.012
1511.9000, -56.983
1511.9200, -56.982
1511.9400, -56.969
1511.9600, -56.951
1511.9800, -56.954
1512.0000, -56.921
1512.0200, -56.928
1512.0400, -56.907
1512.0600, -56.901
1512.0800, -56.885
1512.1000, -56.861
1512.1200, -56.872
1512.1400, -56.859
1512.1600, -56.846
1512.1800, -56.833
1512.2000, -56.839
1512.2200, -56.819
1512.2400, -56.807
1512.2600, -56.789
1512.2800, -56.762
1512.3000, -56.766
1512.3200, -56.759
1512.3400, -56.749
1512.3600, -56.728
1512.3800, -56.726
1512.4000, -56.716
1512.4200, -56.706
1512.4400, -56.700
1512.4600, -56.680
1512.4800, -56.672
1512.5000, -56.664
1512.5200, -56.646
1512.5400, -56.643
1512.5600, -56.621
1512.5800, -56.614
1512.6000, -56.587
1512.6200, -56.586
1512.6400, -56.573
1512.6600, -56.561
1512.6800, -56.544
1512.7000, -56.534
1512.7200, -56.511
1512.7400, -56.510
1512.7600, -56.502
1512.7800, -56.482
1512.8000, -56.467
1512.8200, -56.469
1512.8400, -56.454
1512.8600, -56.451
1512.8800, -56.431
1512.9000, -56.420
1512.9200, -56.400
1512.9400, -56.392
1512.9600, -56.384
1512.9800, -56.366
1513.0000, -56.363
1513.0200, -56.343
1513.0400, -56.334
1513.0600, -56.319
1513.0800, -56.319
1513.1000, -56.298
1513.1200, -56.289
1513.1400, -56.278
1513.1600, -56.268
1513.1800, -56.257
1513.2000, -56.246
1513.2200, -56.235
1513.2400, -56.206
1513.2600, -56.217
1513.2800, -56.196
1513.3000, -56.184
1513.3200, -56.173
1513.3400, -56.171
1513.3600, -56.136
1513.3800, -56.134
1513.4000, -56.119
1513.4200, -56.109
1513.4400, -56.086
1513.4600, -56.088
1513.4800, -56.079
1513.5000, -56.066
1513.5200, -56.051
1513.5400, -56.038
1513.5600, -56.029
1513.5800, -56.017
1513.6000, -55.993
1513.6200, -55.976
1513.6400, -55.966
1513.6600, -55.956
1513.6800, -55.941
1513.7000, -55.940
1513.7200, -55.917
1513.7400, -55.892
1513.7600, -55.887
1513.7800, -55.887
1513.8000, -55.883
1513.8200, -55.860
1513.8400, -55.831
1513.8600, -55.836
1513.8800, -55.813
1513.9000, -55.801
1513.9200, -55.797
1513.9400, -55.770
1513.9600, -55.767
1513.9800, -55.735
1514.0000, -55.734
1514.0200, -55.726
1514.0400, -55.713
1514.0600, -55.700
1514.0800, -55.694
1514.1000, -55.673
1514.1200, -55.662
1514.1400, -55.662
1514.1600, -55.640
1514.1800, -55.624
1514.2000, -55.605
1514.2200, -55.606
1514.2400, -55.583
1514.2600, -55.576
1514.2800, -55.560
1514.3000, -55.553
1514.3200, -55.514
1514.3400, -55.524
1514.3600, -55.512
1514.3800, -55.494
1514.4000, -55.489
1514.4200, -55.478
1514.4400, -55.447
1514.4600, -55.450
1514.4800, -55.432
1514.5000, -55.406
1514.5200, -55.406
1514.5400, -55.384
1514.5600, -55.370
1514.5800, -55.366
1514.6000, -55.335
1514.6200, -55.337
1514.6400, -55.326
1514.6600, -55.319
1514.6800, -55.274
1514.7000, -55.266
1514.7200, -55.270
1514.7400, -55.250
1514.7600, -55.235
1514.7800, -55.217
1514.8000, -55.210
1514.8200, -55.194
1514.8400, -55.187
1514.8600, -55.154
1514.8800, -55.160
1514.9000, -55.134
1514.9200, -55.104
1514.9400, -55.110
1514.9600, -55.102
1514.9800, -55.088
1515.0000, -55.061
1515.0200, -55.057
1515.0400, -55.048
1515.0600, -55.039
1515.0800, -55.013
1515.1000, -55.004
1515.1200, -54.999
1515.1400, -54.960
1515.1600, -54.955
1515.1800, -54.955
1515.2000, -54.928
1515.2200, -54.906
1515.2400, -54.911
1515.2600, -54.879
1515.2800, -54.862
1515.3000, -54.863
1515.3200, -54.845
1515.3400, -54.830
1515.3600, -54.824
1515.3800, -54.806
1515.4000, -54.788
1515.4200, -54.773
1515.4400, -54.765
1515.4600, -54.742
1515.4800, -54.729
1515.5000, -54.707
1515.5200, -54.698
1515.5400, -54.676
1515.5600, -54.667
1515.5800, -54.644
1515.6000, -54.649
1515.6200, -54.623
1515.6400, -54.606
1515.6600, -54.592
1515.6800, -54.579
1515.7000, -54.567
1515.7200, -54.545
1515.7400, -54.533
1515.7600, -54.515
1515.7800, -54.502
1515.8000, -54.473
1515.8200, -54.478
1515.8400, -54.464
1515.8600, -54.433
1515.8800, -54.427
1515.9000, -54.425
1515.9200, -54.395
1515.9400, -54.385
1515.9600, -54.361
1515.9800, -54.358
1516.0000, -54.337
1516.0200, -54.325
1516.0400, -54.309
1516.0600, -54.297
1516.0800, -54.277
1516.1000, -54.257
1516.1200, -54.245
1516.1400, -54.218
1516.1600, -54.210
1516.1800, -54.199
1516.2000, -54.175
1516.2200, -54.159
1516.2400, -54.147
1516.2600, -54.128
1516.2800, -54.114
1516.3000, -54.115
1516.3200, -54.094
1516.3400, -54.077
1516.3600, -54.060
1516.3800, -54.036
1516.4000, -54.025
1516.4200, -53.997
1516.4400, -53.986
1516.4600, -53.962
1516.4800, -53.930
1516.5000, -53.920
1516.5200, -53.914
1516.5400, -53.905
1516.5600, -53.888
1516.5800, -53.861
1516.6000, -53.848
1516.6200, -53.822
1516.6400, -53.817
1516.6600, -53.800
1516.6800, -53.776
1516.7000, -53.767
1516.7200, -53.740
1516.7400, -53.710
1516.7600, -53.707
1516.7800, -53.702
1516.8000, -53.682
1516.8200, -53.653
1516.8400, -53.645
1516.8600, -53.623
1516.8800, -53.613
1516.9000, -53.585
1516.9200, -53.575
1516.9400, -53.545
1516.9600, -53.541
1516.9800, -53.523
1517.0000, -53.502
1517.0200, -53.493
1517.0400, -53.459
1517.0600, -53.447
1517.0800, -53.426
1517.1000, -53.408
1517.1200, -53.392
1517.1400, -53.377
1517.1600, -53.355
1517.1800, -53.341
1517.2000, -53.315
1517.2200, -53.299
1517.2400, -53.288
1517.2600, -53.269
1517.2800, -53.252
1517.3000, -53.235
1517.3200, -53.215
1517.3400, -53.202
1517.3600, -53.176
1517.3800, -53.152
1517.4000, -53.139
1517.4200, -53.110
1517.4400, -53.084
1517.4600, -53.072
1517.4800, -53.064
1517.5000, -53.044
1517.5200, -53.008
1517.5400, -52.991
1517.5600, -52.978
1517.5800, -52.964
1517.6000, -52.952
1517.6200, -52.927
1517.6400, -52.900
1517.6600, -52.872
1517.6800, -52.851
1517.7000, -52.845
1517.7200, -52.828
1517.7400, -52.808
1517.7600, -52.755
1517.7800, -52.749
1517.8000, -52.733
1517.8200, -52.721
1517.8400, -52.705
1517.8600, -52.679
1517.8800, -52.664
1517.9000, -52.641
1517.9200, -52.623
1517.9400, -52.602
1517.9600, -52.582
1517.9800, -52.553
1518.0000, -52.535
1518.0200, -52.506
1518.0400, -52.487
1518.0600, -52.477
1518.0800, -52.454
1518.1000, -52.438
1518.1200, -52.417
1518.1400, -52.385
1518.1600, -52.365
1518.1800, -52.350
1518.2000, -52.334
1518.2200, -52.314
1518.2400, -52.291
1518.2600, -52.271
1518.2800, -52.249
1518.3000, -52.207
1518.3200, -52.191
1518.3400, -52.171
1518.3600, -52.151
1518.3800, -52.125
1518.4000, -52.120
1518.4200, -52.086
1518.4400, -52.070
1518.4600, -52.033
1518.4800, -52.011
1518.5000, -51.994
1518.5200, -51.966
1518.5400, -51.950
1518.5600, -51.931
1518.5800, -51.887
1518.6000, -51.880
1518.6200, -51.855
1518.6400, -51.839
1518.6600, -51.822
1518.6800, -51.788
1518.7000, -51.754
1518.7200, -51.741
1518.7400, -51.715
1518.7600, -51.702
1518.7800, -51.677
1518.8000, -51.655
1518.8200, -51.632
1518.8400, -51.608
1518.8600, -51.582
1518.8800, -51.566
1518.9000, -51.543
1518.9200, -51.511
1518.9400, -51.493
1518.9600, -51.462
1518.9800, -51.430
1519.0000, -51.419
1519.0200, -51.388
1519.0400, -51.364
1519.0600, -51.350
1519.0800, -51.315
1519.1000, -51.298
1519.1200, -51.269
1519.1400, -51.244
1519.1600, -51.219
1519.1800, -51.193
1519.2000, -51.171
1519.2200, -51.143
1519.2400, -51.109
1519.2600, -51.084
1519.2800, -51.057
1519.3000, -51.028
1519.3200, -51.000
1519.3400, -50.985
1519.3600, -50.970
1519.3800, -50.933
1519.4000, -50.903
1519.4200, -50.874
1519.4400, -50.834
1519.4600, -50.805
1519.4800, -50.790
1519.5000, -50.766
1519.5200, -50.729
1519.5400, -50.703
1519.5600, -50.683
1519.5800, -50.642
1519.6000, -50.642
1519.6200, -50.607
1519.6400, -50.552
1519.6600, -50.528
1519.6800, -50.498
1519.7000, -50.490
1519.7200, -50.469
1519.7400, -50.438
1519.7600, -50.412
1519.7800, -50.387
1519.8000, -50.358
1519.8200, -50.317
1519.8400, -50.288
1519.8600, -50.264
1519.8800, -50.244
1519.9000, -50.203
1519.9200, -50.175
1519.9400, -50.151
1519.9600, -50.119
1519.9800, -50.094
1520.0000, -50.068
1520.0200, -50.027
1520.0400, -50.001
1520.0600, -49.975
1520.0800, -49.948
1520.1000, -49.917
1520.1200, -49.885
1520.1400, -49.852
1520.1600, -49.825
1520.1800, -49.781
1520.2000, -49.752
1520.2200, -49.718
1520.2400, -49.697
1520.2600, -49.662
1520.2800, -49.629
1520.3000, -49.598
1520.3200, -49.567
1520.3400, -49.530
1520.3600, -49.496
1520.3800, -49.476
1520.4000, -49.421
1520.4200, -49.414
1520.4400, -49.371
1520.4600, -49.340
1520.4800, -49.315
1520.5000, -49.277
1520.5200, -49.242
1520.5400, -49.208
1520.5600, -49.192
1520.5800, -49.139
1520.6000, -49.117
1520.6200, -49.052
