70BCSV 	
// AQ6370B OPTICAL SPECTRUM ANALYZER //                 
25
"CTRWL",1550.000000
"SPAN", 100.000000
"START WL",1500.000000
"STOP WL",1600.000000
"WLFREQ", 0
"REFL",-28.8
"LSCL", 5.0
"RESLN",0.100
"AVG",   1
"SMPLAUTO",      0
"SMPL",       5001
"SMPLINTVL",0.0200
"HIGH1"
"MEAS"
"LSUNT",0
"NMSKH","OFF"
"RESCOR",0
"RESPARM", 9050
"FREQPARM", 9050






"[TRACE DATA]"
1500.0000, -61.886
1500.0200, -61.932
1500.0400, -61.925
1500.0600, -61.913
1500.0800, -61.885
1500.1000, -61.880
1500.1200, -61.868
1500.1400, -61.926
1500.1600, -61.856
1500.1800, -61.885
1500.2000, -61.866
1500.2200, -61.851
1500.2400, -61.866
1500.2600, -61.840
1500.2800, -61.818
1500.3000, -61.869
1500.3200, -61.846
1500.3400, -61.828
1500.3600, -61.824
1500.3800, -61.792
1500.4000, -61.840
1500.4200, -61.805
1500.4400, -61.804
1500.4600, -61.781
1500.4800, -61.764
1500.5000, -61.796
1500.5200, -61.743
1500.5400, -61.782
1500.5600, -61.798
1500.5800, -61.759
1500.6000, -61.765
1500.6200, -61.741
1500.6400, -61.747
1500.6600, -61.747
1500.6800, -61.731
1500.7000, -61.739
1500.7200, -61.736
1500.7400, -61.717
1500.7600, -61.714
1500.7800, -61.705
1500.8000, -61.719
1500.8200, -61.707
1500.8400, -61.691
1500.8600, -61.691
1500.8800, -61.659
1500.9000, -61.671
1500.9200, -61.640
1500.9400, -61.666
1500.9600, -61.682
1500.9800, -61.654
1501.0000, -61.644
1501.0200, -61.641
1501.0400, -61.629
1501.0600, -61.631
1501.0800, -61.597
1501.1000, -61.613
1501.1200, -61.609
1501.1400, -61.622
1501.1600, -61.609
1501.1800, -61.585
1501.2000, -61.589
1501.2200, -61.577
1501.2400, -61.555
1501.2600, -61.585
1501.2800, -61.582
1501.3000, -61.554
1501.3200, -61.550
1501.3400, -61.556
1501.3600, -61.543
1501.3800, -61.532
1501.4000, -61.541
1501.4200, -61.527
1501.4400, -61.508
1501.4600, -61.513
1501.4800, -61.507
1501.5000, -61.504
1501.5200, -61.479
1501.5400, -61.487
1501.5600, -61.483
1501.5800, -61.518
1501.6000, -61.490
1501.6200, -61.456
1501.6400, -61.470
1501.6600, -61.480
1501.6800, -61.439
1501.7000, -61.436
1501.7200, -61.439
1501.7400, -61.439
1501.7600, -61.432
1501.7800, -61.429
1501.8000, -61.437
1501.8200, -61.419
1501.8400, -61.439
1501.8600, -61.421
1501.8800, -61.416
1501.9000, -61.400
1501.9200, -61.388
1501.9400, -61.386
1501.9600, -61.356
1501.9800, -61.399
1502.0000, -61.350
1502.0200, -61.333
1502.0400, -61.351
1502.0600, -61.342
1502.0800, -61.338
1502.1000, -61.322
1502.1200, -61.322
1502.1400, -61.319
1502.1600, -61.334
1502.1800, -61.297
1502.2000, -61.288
1502.2200, -61.279
1502.2400, -61.285
1502.2600, -61.261
1502.2800, -61.285
1502.3000, -61.259
1502.3200, -61.255
1502.3400, -61.262
1502.3600, -61.283
1502.3800, -61.227
1502.4000, -61.242
1502.4200, -61.197
1502.4400, -61.256
1502.4600, -61.212
1502.4800, -61.230
1502.5000, -61.197
1502.5200, -61.187
1502.5400, -61.177
1502.5600, -61.230
1502.5800, -61.176
1502.6000, -61.160
1502.6200, -61.118
1502.6400, -61.165
1502.6600, -61.139
1502.6800, -61.120
1502.7000, -61.117
1502.7200, -61.116
1502.7400, -61.147
1502.7600, -61.129
1502.7800, -61.135
1502.8000, -61.117
1502.8200, -61.080
1502.8400, -61.096
1502.8600, -61.070
1502.8800, -61.056
1502.9000, -61.083
1502.9200, -61.078
1502.9400, -61.055
1502.9600, -61.039
1502.9800, -61.037
1503.0000, -61.038
1503.0200, -61.019
1503.0400, -61.014
1503.0600, -61.023
1503.0800, -61.013
1503.1000, -61.021
1503.1200, -61.022
1503.1400, -61.006
1503.1600, -60.983
1503.1800, -60.991
1503.2000, -60.943
1503.2200, -60.956
1503.2400, -60.990
1503.2600, -60.951
1503.2800, -60.900
1503.3000, -60.948
1503.3200, -60.941
1503.3400, -60.917
1503.3600, -60.912
1503.3800, -60.928
1503.4000, -60.924
1503.4200, -60.877
1503.4400, -60.919
1503.4600, -60.870
1503.4800, -60.895
1503.5000, -60.882
1503.5200, -60.843
1503.5400, -60.899
1503.5600, -60.863
1503.5800, -60.831
1503.6000, -60.833
1503.6200, -60.823
1503.6400, -60.829
1503.6600, -60.807
1503.6800, -60.814
1503.7000, -60.800
1503.7200, -60.802
1503.7400, -60.772
1503.7600, -60.790
1503.7800, -60.766
1503.8000, -60.766
1503.8200, -60.724
1503.8400, -60.749
1503.8600, -60.753
1503.8800, -60.765
1503.9000, -60.751
1503.9200, -60.717
1503.9400, -60.735
1503.9600, -60.715
1503.9800, -60.707
1504.0000, -60.717
1504.0200, -60.668
1504.0400, -60.719
1504.0600, -60.689
1504.0800, -60.674
1504.1000, -60.674
1504.1200, -60.667
1504.1400, -60.673
1504.1600, -60.642
1504.1800, -60.652
1504.2000, -60.618
1504.2200, -60.618
1504.2400, -60.612
1504.2600, -60.604
1504.2800, -60.595
1504.3000, -60.592
1504.3200, -60.616
1504.3400, -60.569
1504.3600, -60.596
1504.3800, -60.571
1504.4000, -60.574
1504.4200, -60.545
1504.4400, -60.545
1504.4600, -60.529
1504.4800, -60.524
1504.5000, -60.527
1504.5200, -60.521
1504.5400, -60.506
1504.5600, -60.509
1504.5800, -60.481
1504.6000, -60.494
1504.6200, -60.471
1504.6400, -60.464
1504.6600, -60.472
1504.6800, -60.444
1504.7000, -60.436
1504.7200, -60.454
1504.7400, -60.439
1504.7600, -60.442
1504.7800, -60.422
1504.8000, -60.421
1504.8200, -60.409
1504.8400, -60.407
1504.8600, -60.375
1504.8800, -60.413
1504.9000, -60.379
1504.9200, -60.353
1504.9400, -60.370
1504.9600, -60.361
1504.9800, -60.344
1505.0000, -60.316
1505.0200, -60.327
1505.0400, -60.311
1505.0600, -60.328
1505.0800, -60.316
1505.1000, -60.279
1505.1200, -60.297
1505.1400, -60.259
1505.1600, -60.266
1505.1800, -60.248
1505.2000, -60.288
1505.2200, -60.230
1505.2400, -60.215
1505.2600, -60.231
1505.2800, -60.214
1505.3000, -60.225
1505.3200, -60.217
1505.3400, -60.203
1505.3600, -60.234
1505.3800, -60.159
1505.4000, -60.186
1505.4200, -60.183
1505.4400, -60.168
1505.4600, -60.149
1505.4800, -60.145
1505.5000, -60.133
1505.5200, -60.132
1505.5400, -60.121
1505.5600, -60.139
1505.5800, -60.105
1505.6000, -60.116
1505.6200, -60.081
1505.6400, -60.118
1505.6600, -60.074
1505.6800, -60.089
1505.7000, -60.061
1505.7200, -60.052
1505.7400, -60.039
1505.7600, -60.070
1505.7800, -60.013
1505.8000, -60.023
1505.8200, -60.015
1505.8400, -60.013
1505.8600, -60.032
1505.8800, -59.999
1505.9000, -59.957
1505.9200, -59.991
1505.9400, -59.985
1505.9600, -59.962
1505.9800, -59.938
1506.0000, -59.952
1506.0200, -59.942
1506.0400, -59.930
1506.0600, -59.932
1506.0800, -59.901
1506.1000, -59.913
1506.1200, -59.917
1506.1400, -59.894
1506.1600, -59.870
1506.1800, -59.863
1506.2000, -59.889
1506.2200, -59.875
1506.2400, -59.868
1506.2600, -59.848
1506.2800, -59.849
1506.3000, -59.830
1506.3200, -59.823
1506.3400, -59.810
1506.3600, -59.823
1506.3800, -59.807
1506.4000, -59.802
1506.4200, -59.782
1506.4400, -59.774
1506.4600, -59.804
1506.4800, -59.759
1506.5000, -59.743
1506.5200, -59.765
1506.5400, -59.751
1506.5600, -59.723
1506.5800, -59.716
1506.6000, -59.708
1506.6200, -59.710
1506.6400, -59.700
1506.6600, -59.701
1506.6800, -59.675
1506.7000, -59.680
1506.7200, -59.670
1506.7400, -59.640
1506.7600, -59.657
1506.7800, -59.664
1506.8000, -59.637
1506.8200, -59.602
1506.8400, -59.618
1506.8600, -59.607
1506.8800, -59.619
1506.9000, -59.595
1506.9200, -59.586
1506.9400, -59.589
1506.9600, -59.569
1506.9800, -59.583
1507.0000, -59.533
1507.0200, -59.556
1507.0400, -59.541
1507.0600, -59.532
1507.0800, -59.553
1507.1000, -59.507
1507.1200, -59.498
1507.1400, -59.511
1507.1600, -59.512
1507.1800, -59.482
1507.2000, -59.489
1507.2200, -59.485
1507.2400, -59.475
1507.2600, -59.471
1507.2800, -59.464
1507.3000, -59.453
1507.3200, -59.433
1507.3400, -59.421
1507.3600, -59.406
1507.3800, -59.407
1507.4000, -59.417
1507.4200, -59.385
1507.4400, -59.379
1507.4600, -59.360
1507.4800, -59.371
1507.5000, -59.354
1507.5200, -59.352
1507.5400, -59.331
1507.5600, -59.343
1507.5800, -59.325
1507.6000, -59.303
1507.6200, -59.316
1507.6400, -59.295
1507.6600, -59.284
1507.6800, -59.289
1507.7000, -59.274
1507.7200, -59.260
1507.7400, -59.261
1507.7600, -59.244
1507.7800, -59.228
1507.8000, -59.223
1507.8200, -59.218
1507.8400, -59.210
1507.8600, -59.211
1507.8800, -59.189
1507.9000, -59.197
1507.9200, -59.195
1507.9400, -59.167
1507.9600, -59.152
1507.9800, -59.158
1508.0000, -59.157
1508.0200, -59.153
1508.0400, -59.099
1508.0600, -59.126
1508.0800, -59.127
1508.1000, -59.122
1508.1200, -59.083
1508.1400, -59.090
1508.1600, -59.096
1508.1800, -59.069
1508.2000, -59.058
1508.2200, -59.066
1508.2400, -59.063
1508.2600, -59.046
1508.2800, -59.036
1508.3000, -59.038
1508.3200, -59.016
1508.3400, -59.024
1508.3600, -59.009
1508.3800, -58.983
1508.4000, -58.985
1508.4200, -58.955
1508.4400, -58.952
1508.4600, -58.952
1508.4800, -58.964
1508.5000, -58.927
1508.5200, -58.930
1508.5400, -58.936
1508.5600, -58.908
1508.5800, -58.917
1508.6000, -58.890
1508.6200, -58.901
1508.6400, -58.880
1508.6600, -58.863
1508.6800, -58.864
1508.7000, -58.859
1508.7200, -58.844
1508.7400, -58.845
1508.7600, -58.829
1508.7800, -58.817
1508.8000, -58.815
1508.8200, -58.821
1508.8400, -58.799
1508.8600, -58.796
1508.8800, -58.777
1508.9000, -58.770
1508.9200, -58.773
1508.9400, -58.742
1508.9600, -58.736
1508.9800, -58.744
1509.0000, -58.719
1509.0200, -58.707
1509.0400, -58.712
1509.0600, -58.710
1509.0800, -58.722
1509.1000, -58.675
1509.1200, -58.668
1509.1400, -58.702
1509.1600, -58.646
1509.1800, -58.626
1509.2000, -58.636
1509.2200, -58.630
1509.2400, -58.614
1509.2600, -58.608
1509.2800, -58.603
1509.3000, -58.586
1509.3200, -58.586
1509.3400, -58.572
1509.3600, -58.558
1509.3800, -58.545
1509.4000, -58.540
1509.4200, -58.545
1509.4400, -58.524
1509.4600, -58.523
1509.4800, -58.513
1509.5000, -58.499
1509.5200, -58.482
1509.5400, -58.486
1509.5600, -58.477
1509.5800, -58.465
1509.6000, -58.460
1509.6200, -58.448
1509.6400, -58.441
1509.6600, -58.423
1509.6800, -58.426
1509.7000, -58.400
1509.7200, -58.423
1509.7400, -58.369
1509.7600, -58.377
1509.7800, -58.379
1509.8000, -58.359
1509.8200, -58.377
1509.8400, -58.356
1509.8600, -58.363
1509.8800, -58.311
1509.9000, -58.322
1509.9200, -58.318
1509.9400, -58.328
1509.9600, -58.285
1509.9800, -58.267
1510.0000, -58.291
1510.0200, -58.275
1510.0400, -58.260
1510.0600, -58.264
1510.0800, -58.226
1510.1000, -58.236
1510.1200, -58.222
1510.1400, -58.216
1510.1600, -58.195
1510.1800, -58.192
1510.2000, -58.189
1510.2200, -58.178
1510.2400, -58.152
1510.2600, -58.158
1510.2800, -58.138
1510.3000, -58.124
1510.3200, -58.111
1510.3400, -58.109
1510.3600, -58.081
1510.3800, -58.068
1510.4000, -58.074
1510.4200, -58.056
1510.4400, -58.048
1510.4600, -58.030
1510.4800, -58.026
1510.5000, -58.010
1510.5200, -58.004
1510.5400, -57.980
1510.5600, -57.981
1510.5800, -57.978
1510.6000, -57.968
1510.6200, -57.954
1510.6400, -57.950
1510.6600, -57.944
1510.6800, -57.917
1510.7000, -57.910
1510.7200, -57.922
1510.7400, -57.903
1510.7600, -57.885
1510.7800, -57.858
1510.8000, -57.863
1510.8200, -57.867
1510.8400, -57.827
1510.8600, -57.850
1510.8800, -57.830
1510.9000, -57.790
1510.9200, -57.807
1510.9400, -57.791
1510.9600, -57.788
1510.9800, -57.773
1511.0000, -57.766
1511.0200, -57.761
1511.0400, -57.760
1511.0600, -57.736
1511.0800, -57.716
1511.1000, -57.705
1511.1200, -57.692
1511.1400, -57.681
1511.1600, -57.675
1511.1800, -57.649
1511.2000, -57.659
1511.2200, -57.633
1511.2400, -57.638
1511.2600, -57.624
1511.2800, -57.608
1511.3000, -57.600
1511.3200, -57.584
1511.3400, -57.569
1511.3600, -57.552
1511.3800, -57.544
1511.4000, -57.541
1511.4200, -57.519
1511.4400, -57.510
1511.4600, -57.494
1511.4800, -57.499
1511.5000, -57.475
1511.5200, -57.460
1511.5400, -57.448
1511.5600, -57.438
1511.5800, -57.425
1511.6000, -57.406
1511.6200, -57.419
1511.6400, -57.404
1511.6600, -57.392
1511.6800, -57.384
1511.7000, -57.371
1511.7200, -57.357
1511.7400, -57.352
1511.7600, -57.345
1511.7800, -57.323
1511.8000, -57.321
1511.8200, -57.295
1511.8400, -57.292
1511.8600, -57.273
1511.8800, -57.261
1511.9000, -57.255
1511.9200, -57.246
1511.9400, -57.216
1511.9600, -57.233
1511.9800, -57.195
1512.0000, -57.199
1512.0200, -57.194
1512.0400, -57.187
1512.0600, -57.148
1512.0800, -57.153
1512.1000, -57.127
1512.1200, -57.113
1512.1400, -57.126
1512.1600, -57.094
1512.1800, -57.092
1512.2000, -57.079
1512.2200, -57.077
1512.2400, -57.062
1512.2600, -57.061
1512.2800, -57.036
1512.3000, -57.026
1512.3200, -57.000
1512.3400, -56.998
1512.3600, -56.984
1512.3800, -56.981
1512.4000, -56.970
1512.4200, -56.958
1512.4400, -56.962
1512.4600, -56.928
1512.4800, -56.914
1512.5000, -56.906
1512.5200, -56.897
1512.5400, -56.895
1512.5600, -56.882
1512.5800, -56.859
1512.6000, -56.856
1512.6200, -56.832
1512.6400, -56.834
1512.6600, -56.820
1512.6800, -56.815
1512.7000, -56.803
1512.7200, -56.800
1512.7400, -56.766
1512.7600, -56.753
1512.7800, -56.749
1512.8000, -56.726
1512.8200, -56.723
1512.8400, -56.717
1512.8600, -56.701
1512.8800, -56.697
1512.9000, -56.692
1512.9200, -56.665
1512.9400, -56.667
1512.9600, -56.658
1512.9800, -56.641
1513.0000, -56.622
1513.0200, -56.619
1513.0400, -56.604
1513.0600, -56.584
1513.0800, -56.571
1513.1000, -56.565
1513.1200, -56.529
1513.1400, -56.541
1513.1600, -56.528
1513.1800, -56.542
1513.2000, -56.501
1513.2200, -56.494
1513.2400, -56.487
1513.2600, -56.465
1513.2800, -56.467
1513.3000, -56.422
1513.3200, -56.441
1513.3400, -56.404
1513.3600, -56.411
1513.3800, -56.390
1513.4000, -56.372
1513.4200, -56.368
1513.4400, -56.354
1513.4600, -56.349
1513.4800, -56.333
1513.5000, -56.317
1513.5200, -56.305
1513.5400, -56.308
1513.5600, -56.269
1513.5800, -56.272
1513.6000, -56.251
1513.6200, -56.248
1513.6400, -56.251
1513.6600, -56.225
1513.6800, -56.210
1513.7000, -56.205
1513.7200, -56.186
1513.7400, -56.156
1513.7600, -56.161
1513.7800, -56.127
1513.8000, -56.140
1513.8200, -56.140
1513.8400, -56.107
1513.8600, -56.107
1513.8800, -56.096
1513.9000, -56.070
1513.9200, -56.057
1513.9400, -56.055
1513.9600, -56.032
1513.9800, -56.014
1514.0000, -56.016
1514.0200, -55.990
1514.0400, -55.981
1514.0600, -55.974
1514.0800, -55.957
1514.1000, -55.945
1514.1200, -55.929
1514.1400, -55.921
1514.1600, -55.913
1514.1800, -55.907
1514.2000, -55.861
1514.2200, -55.868
1514.2400, -55.852
1514.2600, -55.838
1514.2800, -55.824
1514.3000, -55.811
1514.3200, -55.800
1514.3400, -55.788
1514.3600, -55.788
1514.3800, -55.756
1514.4000, -55.752
1514.4200, -55.734
1514.4400, -55.719
1514.4600, -55.717
1514.4800, -55.700
1514.5000, -55.687
1514.5200, -55.673
1514.5400, -55.662
1514.5600, -55.646
1514.5800, -55.632
1514.6000, -55.618
1514.6200, -55.602
1514.6400, -55.596
1514.6600, -55.583
1514.6800, -55.556
1514.7000, -55.550
1514.7200, -55.539
1514.7400, -55.533
1514.7600, -55.505
1514.7800, -55.498
1514.8000, -55.492
1514.8200, -55.473
1514.8400, -55.476
1514.8600, -55.443
1514.8800, -55.437
1514.9000, -55.414
1514.9200, -55.398
1514.9400, -55.400
1514.9600, -55.375
1514.9800, -55.355
1515.0000, -55.345
1515.0200, -55.346
1515.0400, -55.314
1515.0600, -55.289
1515.0800, -55.297
1515.1000, -55.267
1515.1200, -55.267
1515.1400, -55.242
1515.1600, -55.240
1515.1800, -55.224
1515.2000, -55.194
1515.2200, -55.181
1515.2400, -55.174
1515.2600, -55.153
1515.2800, -55.147
1515.3000, -55.134
1515.3200, -55.114
1515.3400, -55.104
1515.3600, -55.090
1515.3800, -55.077
1515.4000, -55.065
1515.4200, -55.049
1515.4400, -55.030
1515.4600, -55.018
1515.4800, -55.012
1515.5000, -54.986
1515.5200, -54.973
1515.5400, -54.965
1515.5600, -54.944
1515.5800, -54.945
1515.6000, -54.927
1515.6200, -54.898
1515.6400, -54.916
1515.6600, -54.895
1515.6800, -54.887
1515.7000, -54.840
1515.7200, -54.840
1515.7400, -54.813
1515.7600, -54.806
1515.7800, -54.798
1515.8000, -54.785
1515.8200, -54.761
1515.8400, -54.746
1515.8600, -54.719
1515.8800, -54.717
1515.9000, -54.698
1515.9200, -54.680
1515.9400, -54.657
1515.9600, -54.651
1515.9800, -54.634
1516.0000, -54.609
1516.0200, -54.601
1516.0400, -54.593
1516.0600, -54.580
1516.0800, -54.558
1516.1000, -54.535
1516.1200, -54.518
1516.1400, -54.510
1516.1600, -54.492
1516.1800, -54.475
1516.2000, -54.452
1516.2200, -54.451
1516.2400, -54.424
1516.2600, -54.417
1516.2800, -54.392
1516.3000, -54.392
1516.3200, -54.369
1516.3400, -54.356
1516.3600, -54.339
1516.3800, -54.323
1516.4000, -54.304
1516.4200, -54.284
1516.4400, -54.276
1516.4600, -54.255
1516.4800, -54.243
1516.5000, -54.227
1516.5200, -54.202
1516.5400, -54.198
1516.5600, -54.163
1516.5800, -54.132
1516.6000, -54.122
1516.6200, -54.106
1516.6400, -54.126
1516.6600, -54.094
1516.6800, -54.074
1516.7000, -54.046
1516.7200, -54.031
1516.7400, -54.026
1516.7600, -54.014
1516.7800, -53.995
1516.8000, -53.952
1516.8200, -53.959
1516.8400, -53.939
1516.8600, -53.912
1516.8800, -53.897
1516.9000, -53.876
1516.9200, -53.855
1516.9400, -53.840
1516.9600, -53.809
1516.9800, -53.809
1517.0000, -53.791
1517.0200, -53.771
1517.0400, -53.742
1517.0600, -53.735
1517.0800, -53.713
1517.1000, -53.699
1517.1200, -53.678
1517.1400, -53.656
1517.1600, -53.634
1517.1800, -53.621
1517.2000, -53.608
1517.2200, -53.586
1517.2400, -53.564
1517.2600, -53.553
1517.2800, -53.543
1517.3000, -53.511
1517.3200, -53.493
1517.3400, -53.491
1517.3600, -53.448
1517.3800, -53.452
1517.4000, -53.433
1517.4200, -53.405
1517.4400, -53.392
1517.4600, -53.379
1517.4800, -53.356
1517.5000, -53.329
1517.5200, -53.307
1517.5400, -53.295
1517.5600, -53.274
1517.5800, -53.254
1517.6000, -53.236
1517.6200, -53.218
1517.6400, -53.205
1517.6600, -53.189
1517.6800, -53.168
1517.7000, -53.132
1517.7200, -53.120
1517.7400, -53.099
1517.7600, -53.077
1517.7800, -53.058
1517.8000, -53.037
1517.8200, -53.016
1517.8400, -52.988
1517.8600, -52.968
1517.8800, -52.945
1517.9000, -52.936
1517.9200, -52.922
1517.9400, -52.895
1517.9600, -52.879
1517.9800, -52.843
1518.0000, -52.833
1518.0200, -52.804
1518.0400, -52.783
1518.0600, -52.768
1518.0800, -52.749
1518.1000, -52.725
1518.1200, -52.705
1518.1400, -52.683
1518.1600, -52.665
1518.1800, -52.645
1518.2000, -52.622
1518.2200, -52.610
1518.2400, -52.574
1518.2600, -52.557
1518.2800, -52.546
1518.3000, -52.501
1518.3200, -52.506
1518.3400, -52.477
1518.3600, -52.461
1518.3800, -52.453
1518.4000, -52.421
1518.4200, -52.391
1518.4400, -52.365
1518.4600, -52.346
1518.4800, -52.328
1518.5000, -52.292
1518.5200, -52.271
1518.5400, -52.253
1518.5600, -52.221
1518.5800, -52.216
1518.6000, -52.189
1518.6200, -52.176
1518.6400, -52.153
1518.6600, -52.132
1518.6800, -52.103
1518.7000, -52.076
1518.7200, -52.060
1518.7400, -52.031
1518.7600, -52.009
1518.7800, -51.980
1518.8000, -51.955
1518.8200, -51.932
1518.8400, -51.918
1518.8600, -51.896
1518.8800, -51.877
1518.9000, -51.854
1518.9200, -51.819
1518.9400, -51.796
1518.9600, -51.767
1518.9800, -51.753
1519.0000, -51.722
1519.0200, -51.696
1519.0400, -51.666
1519.0600, -51.624
1519.0800, -51.603
1519.1000, -51.596
1519.1200, -51.577
1519.1400, -51.548
1519.1600, -51.529
1519.1800, -51.505
1519.2000, -51.482
1519.2200, -51.444
1519.2400, -51.423
1519.2600, -51.400
1519.2800, -51.379
1519.3000, -51.352
1519.3200, -51.335
1519.3400, -51.301
1519.3600, -51.267
1519.3800, -51.238
1519.4000, -51.218
1519.4200, -51.195
1519.4400, -51.164
1519.4600, -51.153
1519.4800, -51.115
1519.5000, -51.076
1519.5200, -51.070
1519.5400, -51.024
1519.5600, -51.011
1519.5800, -50.994
1519.6000, -50.967
1519.6200, -50.923
1519.6400, -50.901
1519.6600, -50.871
1519.6800, -50.841
1519.7000, -50.817
1519.7200, -50.795
1519.7400, -50.761
1519.7600, -50.733
1519.7800, -50.707
1519.8000, -50.670
1519.8200, -50.640
1519.8400, -50.624
1519.8600, -50.603
1519.8800, -50.570
1519.9000, -50.533
1519.9200, -50.499
1519.9400, -50.475
1519.9600, -50.446
1519.9800, -50.413
1520.0000, -50.391
1520.0200, -50.364
1520.0400, -50.326
1520.0600, -50.303
1520.0800, -50.273
1520.1000, -50.241
1520.1200, -50.204
1520.1400, -50.181
1520.1600, -50.156
1520.1800, -50.119
1520.2000, -50.091
1520.2200, -50.064
1520.2400, -50.019
1520.2600, -50.006
1520.2800, -49.961
1520.3000, -49.941
1520.3200, -49.900
1520.3400, -49.875
1520.3600, -49.845
1520.3800, -49.814
1520.4000, -49.784
1520.4200, -49.737
1520.4400, -49.711
1520.4600, -49.683
1520.4800, -49.652
1520.5000, -49.624
1520.5200, -49.601
1520.5400, -49.572
1520.5600, -49.528
1520.5800, -49.488
1520.6000, -49.462
1520.6200, -49.421
