70BCSV 	
// AQ6370B OPTICAL SPECTRUM ANALYZER //                 
25
"CTRWL",1550.000000
"SPAN", 100.000000
"START WL",1500.000000
"STOP WL",1600.000000
"WLFREQ", 0
"REFL",-28.8
"LSCL", 5.0
"RESLN",0.100
"AVG",   1
"SMPLAUTO",      0
"SMPL",       5001
"SMPLINTVL",0.0200
"HIGH1"
"MEAS"
"LSUNT",0
"NMSKH","OFF"
"RESCOR",0
"RESPARM", 9050
"FREQPARM", 9050






"[TRACE DATA]"
1500.0000, -61.740
1500.0200, -61.713
1500.0400, -61.724
1500.0600, -61.741
1500.0800, -61.689
1500.1000, -61.758
1500.1200, -61.673
1500.1400, -61.698
1500.1600, -61.673
1500.1800, -61.680
1500.2000, -61.714
1500.2200, -61.646
1500.2400, -61.652
1500.2600, -61.659
1500.2800, -61.642
1500.3000, -61.627
1500.3200, -61.638
1500.3400, -61.653
1500.3600, -61.632
1500.3800, -61.621
1500.4000, -61.620
1500.4200, -61.611
1500.4400, -61.617
1500.4600, -61.617
1500.4800, -61.578
1500.5000, -61.599
1500.5200, -61.598
1500.5400, -61.591
1500.5600, -61.599
1500.5800, -61.578
1500.6000, -61.559
1500.6200, -61.536
1500.6400, -61.528
1500.6600, -61.545
1500.6800, -61.549
1500.7000, -61.526
1500.7200, -61.540
1500.7400, -61.530
1500.7600, -61.506
1500.7800, -61.515
1500.8000, -61.509
1500.8200, -61.514
1500.8400, -61.493
1500.8600, -61.488
1500.8800, -61.482
1500.9000, -61.474
1500.9200, -61.460
1500.9400, -61.456
1500.9600, -61.470
1500.9800, -61.459
1501.0000, -61.429
1501.0200, -61.455
1501.0400, -61.437
1501.0600, -61.434
1501.0800, -61.436
1501.1000, -61.426
1501.1200, -61.418
1501.1400, -61.403
1501.1600, -61.416
1501.1800, -61.391
1501.2000, -61.375
1501.2200, -61.422
1501.2400, -61.362
1501.2600, -61.350
1501.2800, -61.369
1501.3000, -61.355
1501.3200, -61.368
1501.3400, -61.375
1501.3600, -61.349
1501.3800, -61.336
1501.4000, -61.329
1501.4200, -61.326
1501.4400, -61.325
1501.4600, -61.303
1501.4800, -61.301
1501.5000, -61.283
1501.5200, -61.270
1501.5400, -61.286
1501.5600, -61.292
1501.5800, -61.289
1501.6000, -61.293
1501.6200, -61.274
1501.6400, -61.247
1501.6600, -61.314
1501.6800, -61.248
1501.7000, -61.268
1501.7200, -61.231
1501.7400, -61.256
1501.7600, -61.239
1501.7800, -61.221
1501.8000, -61.256
1501.8200, -61.163
1501.8400, -61.220
1501.8600, -61.227
1501.8800, -61.214
1501.9000, -61.225
1501.9200, -61.188
1501.9400, -61.197
1501.9600, -61.167
1501.9800, -61.185
1502.0000, -61.189
1502.0200, -61.156
1502.0400, -61.149
1502.0600, -61.189
1502.0800, -61.119
1502.1000, -61.102
1502.1200, -61.127
1502.1400, -61.096
1502.1600, -61.130
1502.1800, -61.115
1502.2000, -61.078
1502.2200, -61.088
1502.2400, -61.060
1502.2600, -61.094
1502.2800, -61.054
1502.3000, -61.068
1502.3200, -61.070
1502.3400, -61.043
1502.3600, -61.036
1502.3800, -61.064
1502.4000, -61.014
1502.4200, -61.025
1502.4400, -61.026
1502.4600, -61.010
1502.4800, -60.987
1502.5000, -61.029
1502.5200, -60.974
1502.5400, -60.980
1502.5600, -60.984
1502.5800, -60.966
1502.6000, -60.954
1502.6200, -60.987
1502.6400, -60.957
1502.6600, -60.946
1502.6800, -60.934
1502.7000, -60.945
1502.7200, -60.904
1502.7400, -60.929
1502.7600, -60.923
1502.7800, -60.916
1502.8000, -60.912
1502.8200, -60.902
1502.8400, -60.871
1502.8600, -60.874
1502.8800, -60.874
1502.9000, -60.893
1502.9200, -60.835
1502.9400, -60.882
1502.9600, -60.849
1502.9800, -60.872
1503.0000, -60.793
1503.0200, -60.843
1503.0400, -60.837
1503.0600, -60.822
1503.0800, -60.777
1503.1000, -60.827
1503.1200, -60.803
1503.1400, -60.768
1503.1600, -60.792
1503.1800, -60.748
1503.2000, -60.779
1503.2200, -60.810
1503.2400, -60.763
1503.2600, -60.741
1503.2800, -60.728
1503.3000, -60.755
1503.3200, -60.732
1503.3400, -60.704
1503.3600, -60.685
1503.3800, -60.713
1503.4000, -60.699
1503.4200, -60.673
1503.4400, -60.711
1503.4600, -60.658
1503.4800, -60.668
1503.5000, -60.652
1503.5200, -60.670
1503.5400, -60.681
1503.5600, -60.632
1503.5800, -60.626
1503.6000, -60.632
1503.6200, -60.602
1503.6400, -60.629
1503.6600, -60.620
1503.6800, -60.623
1503.7000, -60.580
1503.7200, -60.594
1503.7400, -60.601
1503.7600, -60.593
1503.7800, -60.552
1503.8000, -60.564
1503.8200, -60.562
1503.8400, -60.571
1503.8600, -60.549
1503.8800, -60.529
1503.9000, -60.561
1503.9200, -60.539
1503.9400, -60.527
1503.9600, -60.529
1503.9800, -60.513
1504.0000, -60.485
1504.0200, -60.481
1504.0400, -60.519
1504.0600, -60.481
1504.0800, -60.479
1504.1000, -60.463
1504.1200, -60.464
1504.1400, -60.447
1504.1600, -60.435
1504.1800, -60.416
1504.2000, -60.441
1504.2200, -60.448
1504.2400, -60.401
1504.2600, -60.392
1504.2800, -60.399
1504.3000, -60.406
1504.3200, -60.358
1504.3400, -60.360
1504.3600, -60.376
1504.3800, -60.380
1504.4000, -60.340
1504.4200, -60.340
1504.4400, -60.341
1504.4600, -60.334
1504.4800, -60.307
1504.5000, -60.322
1504.5200, -60.313
1504.5400, -60.288
1504.5600, -60.293
1504.5800, -60.281
1504.6000, -60.272
1504.6200, -60.263
1504.6400, -60.266
1504.6600, -60.247
1504.6800, -60.245
1504.7000, -60.233
1504.7200, -60.278
1504.7400, -60.235
1504.7600, -60.203
1504.7800, -60.211
1504.8000, -60.217
1504.8200, -60.218
1504.8400, -60.209
1504.8600, -60.206
1504.8800, -60.177
1504.9000, -60.168
1504.9200, -60.137
1504.9400, -60.143
1504.9600, -60.137
1504.9800, -60.152
1505.0000, -60.126
1505.0200, -60.122
1505.0400, -60.104
1505.0600, -60.108
1505.0800, -60.087
1505.1000, -60.085
1505.1200, -60.091
1505.1400, -60.072
1505.1600, -60.068
1505.1800, -60.065
1505.2000, -60.057
1505.2200, -60.073
1505.2400, -60.017
1505.2600, -60.042
1505.2800, -60.017
1505.3000, -59.991
1505.3200, -60.021
1505.3400, -59.979
1505.3600, -59.984
1505.3800, -60.002
1505.4000, -59.946
1505.4200, -59.976
1505.4400, -59.953
1505.4600, -59.961
1505.4800, -59.930
1505.5000, -59.946
1505.5200, -59.896
1505.5400, -59.928
1505.5600, -59.892
1505.5800, -59.909
1505.6000, -59.900
1505.6200, -59.890
1505.6400, -59.881
1505.6600, -59.879
1505.6800, -59.847
1505.7000, -59.874
1505.7200, -59.832
1505.7400, -59.861
1505.7600, -59.866
1505.7800, -59.843
1505.8000, -59.806
1505.8200, -59.797
1505.8400, -59.808
1505.8600, -59.819
1505.8800, -59.813
1505.9000, -59.761
1505.9200, -59.774
1505.9400, -59.783
1505.9600, -59.774
1505.9800, -59.748
1506.0000, -59.711
1506.0200, -59.738
1506.0400, -59.724
1506.0600, -59.707
1506.0800, -59.714
1506.1000, -59.705
1506.1200, -59.697
1506.1400, -59.683
1506.1600, -59.682
1506.1800, -59.689
1506.2000, -59.646
1506.2200, -59.637
1506.2400, -59.644
1506.2600, -59.637
1506.2800, -59.617
1506.3000, -59.626
1506.3200, -59.629
1506.3400, -59.601
1506.3600, -59.596
1506.3800, -59.590
1506.4000, -59.587
1506.4200, -59.567
1506.4400, -59.604
1506.4600, -59.548
1506.4800, -59.564
1506.5000, -59.509
1506.5200, -59.524
1506.5400, -59.521
1506.5600, -59.511
1506.5800, -59.515
1506.6000, -59.509
1506.6200, -59.498
1506.6400, -59.485
1506.6600, -59.479
1506.6800, -59.467
1506.7000, -59.455
1506.7200, -59.466
1506.7400, -59.468
1506.7600, -59.427
1506.7800, -59.431
1506.8000, -59.428
1506.8200, -59.422
1506.8400, -59.421
1506.8600, -59.402
1506.8800, -59.381
1506.9000, -59.384
1506.9200, -59.365
1506.9400, -59.363
1506.9600, -59.353
1506.9800, -59.351
1507.0000, -59.339
1507.0200, -59.338
1507.0400, -59.357
1507.0600, -59.300
1507.0800, -59.329
1507.1000, -59.279
1507.1200, -59.317
1507.1400, -59.263
1507.1600, -59.279
1507.1800, -59.273
1507.2000, -59.240
1507.2200, -59.253
1507.2400, -59.249
1507.2600, -59.255
1507.2800, -59.263
1507.3000, -59.235
1507.3200, -59.221
1507.3400, -59.198
1507.3600, -59.220
1507.3800, -59.161
1507.4000, -59.202
1507.4200, -59.165
1507.4400, -59.161
1507.4600, -59.171
1507.4800, -59.121
1507.5000, -59.159
1507.5200, -59.121
1507.5400, -59.117
1507.5600, -59.091
1507.5800, -59.129
1507.6000, -59.097
1507.6200, -59.071
1507.6400, -59.081
1507.6600, -59.061
1507.6800, -59.062
1507.7000, -59.056
1507.7200, -59.051
1507.7400, -59.034
1507.7600, -59.045
1507.7800, -59.028
1507.8000, -59.020
1507.8200, -59.009
1507.8400, -59.005
1507.8600, -59.000
1507.8800, -58.967
1507.9000, -58.964
1507.9200, -58.963
1507.9400, -58.950
1507.9600, -58.945
1507.9800, -58.943
1508.0000, -58.928
1508.0200, -58.938
1508.0400, -58.918
1508.0600, -58.932
1508.0800, -58.887
1508.1000, -58.885
1508.1200, -58.859
1508.1400, -58.858
1508.1600, -58.866
1508.1800, -58.862
1508.2000, -58.839
1508.2200, -58.823
1508.2400, -58.845
1508.2600, -58.838
1508.2800, -58.815
1508.3000, -58.794
1508.3200, -58.803
1508.3400, -58.796
1508.3600, -58.794
1508.3800, -58.792
1508.4000, -58.738
1508.4200, -58.773
1508.4400, -58.744
1508.4600, -58.742
1508.4800, -58.731
1508.5000, -58.726
1508.5200, -58.717
1508.5400, -58.707
1508.5600, -58.683
1508.5800, -58.692
1508.6000, -58.683
1508.6200, -58.687
1508.6400, -58.642
1508.6600, -58.657
1508.6800, -58.663
1508.7000, -58.639
1508.7200, -58.639
1508.7400, -58.636
1508.7600, -58.617
1508.7800, -58.591
1508.8000, -58.600
1508.8200, -58.593
1508.8400, -58.587
1508.8600, -58.567
1508.8800, -58.562
1508.9000, -58.532
1508.9200, -58.545
1508.9400, -58.519
1508.9600, -58.530
1508.9800, -58.504
1509.0000, -58.512
1509.0200, -58.487
1509.0400, -58.491
1509.0600, -58.484
1509.0800, -58.470
1509.1000, -58.465
1509.1200, -58.461
1509.1400, -58.463
1509.1600, -58.448
1509.1800, -58.404
1509.2000, -58.403
1509.2200, -58.402
1509.2400, -58.400
1509.2600, -58.407
1509.2800, -58.368
1509.3000, -58.378
1509.3200, -58.374
1509.3400, -58.346
1509.3600, -58.344
1509.3800, -58.338
1509.4000, -58.311
1509.4200, -58.316
1509.4400, -58.295
1509.4600, -58.287
1509.4800, -58.286
1509.5000, -58.283
1509.5200, -58.282
1509.5400, -58.266
1509.5600, -58.263
1509.5800, -58.244
1509.6000, -58.237
1509.6200, -58.238
1509.6400, -58.216
1509.6600, -58.208
1509.6800, -58.223
1509.7000, -58.179
1509.7200, -58.183
1509.7400, -58.177
1509.7600, -58.155
1509.7800, -58.143
1509.8000, -58.158
1509.8200, -58.137
1509.8400, -58.119
1509.8600, -58.115
1509.8800, -58.085
1509.9000, -58.101
1509.9200, -58.085
1509.9400, -58.079
1509.9600, -58.064
1509.9800, -58.071
1510.0000, -58.053
1510.0200, -58.049
1510.0400, -58.042
1510.0600, -57.992
1510.0800, -58.001
1510.1000, -58.002
1510.1200, -57.981
1510.1400, -57.996
1510.1600, -57.978
1510.1800, -57.965
1510.2000, -57.969
1510.2200, -57.953
1510.2400, -57.941
1510.2600, -57.916
1510.2800, -57.920
1510.3000, -57.907
1510.3200, -57.892
1510.3400, -57.887
1510.3600, -57.866
1510.3800, -57.848
1510.4000, -57.840
1510.4200, -57.838
1510.4400, -57.827
1510.4600, -57.822
1510.4800, -57.811
1510.5000, -57.790
1510.5200, -57.792
1510.5400, -57.759
1510.5600, -57.776
1510.5800, -57.755
1510.6000, -57.747
1510.6200, -57.734
1510.6400, -57.716
1510.6600, -57.717
1510.6800, -57.690
1510.7000, -57.686
1510.7200, -57.685
1510.7400, -57.672
1510.7600, -57.652
1510.7800, -57.652
1510.8000, -57.629
1510.8200, -57.626
1510.8400, -57.600
1510.8600, -57.605
1510.8800, -57.580
1510.9000, -57.569
1510.9200, -57.566
1510.9400, -57.571
1510.9600, -57.555
1510.9800, -57.527
1511.0000, -57.535
1511.0200, -57.498
1511.0400, -57.516
1511.0600, -57.491
1511.0800, -57.475
1511.1000, -57.469
1511.1200, -57.463
1511.1400, -57.454
1511.1600, -57.430
1511.1800, -57.418
1511.2000, -57.414
1511.2200, -57.415
1511.2400, -57.410
1511.2600, -57.383
1511.2800, -57.372
1511.3000, -57.365
1511.3200, -57.344
1511.3400, -57.323
1511.3600, -57.331
1511.3800, -57.309
1511.4000, -57.297
1511.4200, -57.285
1511.4400, -57.285
1511.4600, -57.262
1511.4800, -57.257
1511.5000, -57.245
1511.5200, -57.252
1511.5400, -57.221
1511.5600, -57.223
1511.5800, -57.180
1511.6000, -57.207
1511.6200, -57.180
1511.6400, -57.157
1511.6600, -57.171
1511.6800, -57.132
1511.7000, -57.139
1511.7200, -57.117
1511.7400, -57.101
1511.7600, -57.094
1511.7800, -57.091
1511.8000, -57.078
1511.8200, -57.063
1511.8400, -57.055
1511.8600, -57.039
1511.8800, -57.024
1511.9000, -57.013
1511.9200, -57.000
1511.9400, -56.997
1511.9600, -56.999
1511.9800, -56.967
1512.0000, -56.953
1512.0200, -56.935
1512.0400, -56.934
1512.0600, -56.925
1512.0800, -56.906
1512.1000, -56.897
1512.1200, -56.888
1512.1400, -56.893
1512.1600, -56.868
1512.1800, -56.860
1512.2000, -56.861
1512.2200, -56.824
1512.2400, -56.834
1512.2600, -56.808
1512.2800, -56.796
1512.3000, -56.804
1512.3200, -56.770
1512.3400, -56.759
1512.3600, -56.760
1512.3800, -56.730
1512.4000, -56.743
1512.4200, -56.722
1512.4400, -56.716
1512.4600, -56.701
1512.4800, -56.701
1512.5000, -56.677
1512.5200, -56.672
1512.5400, -56.659
1512.5600, -56.651
1512.5800, -56.635
1512.6000, -56.612
1512.6200, -56.613
1512.6400, -56.594
1512.6600, -56.585
1512.6800, -56.574
1512.7000, -56.544
1512.7200, -56.558
1512.7400, -56.519
1512.7600, -56.513
1512.7800, -56.515
1512.8000, -56.490
1512.8200, -56.489
1512.8400, -56.481
1512.8600, -56.464
1512.8800, -56.450
1512.9000, -56.437
1512.9200, -56.435
1512.9400, -56.427
1512.9600, -56.409
1512.9800, -56.379
1513.0000, -56.389
1513.0200, -56.364
1513.0400, -56.361
1513.0600, -56.341
1513.0800, -56.330
1513.1000, -56.331
1513.1200, -56.325
1513.1400, -56.301
1513.1600, -56.287
1513.1800, -56.281
1513.2000, -56.268
1513.2200, -56.251
1513.2400, -56.243
1513.2600, -56.229
1513.2800, -56.224
1513.3000, -56.195
1513.3200, -56.202
1513.3400, -56.180
1513.3600, -56.158
1513.3800, -56.170
1513.4000, -56.149
1513.4200, -56.136
1513.4400, -56.120
1513.4600, -56.100
1513.4800, -56.096
1513.5000, -56.093
1513.5200, -56.067
1513.5400, -56.058
1513.5600, -56.050
1513.5800, -56.025
1513.6000, -56.025
1513.6200, -55.995
1513.6400, -55.999
1513.6600, -55.992
1513.6800, -55.961
1513.7000, -55.953
1513.7200, -55.936
1513.7400, -55.931
1513.7600, -55.913
1513.7800, -55.914
1513.8000, -55.892
1513.8200, -55.884
1513.8400, -55.851
1513.8600, -55.852
1513.8800, -55.827
1513.9000, -55.819
1513.9200, -55.821
1513.9400, -55.794
1513.9600, -55.798
1513.9800, -55.773
1514.0000, -55.757
1514.0200, -55.746
1514.0400, -55.738
1514.0600, -55.733
1514.0800, -55.710
1514.1000, -55.703
1514.1200, -55.685
1514.1400, -55.681
1514.1600, -55.661
1514.1800, -55.651
1514.2000, -55.632
1514.2200, -55.626
1514.2400, -55.612
1514.2600, -55.597
1514.2800, -55.591
1514.3000, -55.565
1514.3200, -55.562
1514.3400, -55.541
1514.3600, -55.529
1514.3800, -55.520
1514.4000, -55.503
1514.4200, -55.497
1514.4400, -55.485
1514.4600, -55.469
1514.4800, -55.451
1514.5000, -55.438
1514.5200, -55.422
1514.5400, -55.408
1514.5600, -55.396
1514.5800, -55.388
1514.6000, -55.379
1514.6200, -55.351
1514.6400, -55.339
1514.6600, -55.338
1514.6800, -55.317
1514.7000, -55.299
1514.7200, -55.293
1514.7400, -55.286
1514.7600, -55.251
1514.7800, -55.241
1514.8000, -55.239
1514.8200, -55.216
1514.8400, -55.222
1514.8600, -55.202
1514.8800, -55.171
1514.9000, -55.166
1514.9200, -55.148
1514.9400, -55.136
1514.9600, -55.121
1514.9800, -55.115
1515.0000, -55.103
1515.0200, -55.082
1515.0400, -55.081
1515.0600, -55.051
1515.0800, -55.035
1515.1000, -55.014
1515.1200, -55.011
1515.1400, -54.999
1515.1600, -54.982
1515.1800, -54.967
1515.2000, -54.946
1515.2200, -54.941
1515.2400, -54.926
1515.2600, -54.904
1515.2800, -54.899
1515.3000, -54.885
1515.3200, -54.858
1515.3400, -54.852
1515.3600, -54.849
1515.3800, -54.827
1515.4000, -54.816
1515.4200, -54.795
1515.4400, -54.784
1515.4600, -54.766
1515.4800, -54.742
1515.5000, -54.740
1515.5200, -54.713
1515.5400, -54.704
1515.5600, -54.678
1515.5800, -54.666
1515.6000, -54.665
1515.6200, -54.651
1515.6400, -54.620
1515.6600, -54.624
1515.6800, -54.608
1515.7000, -54.589
1515.7200, -54.571
1515.7400, -54.555
1515.7600, -54.543
1515.7800, -54.538
1515.8000, -54.502
1515.8200, -54.491
1515.8400, -54.482
1515.8600, -54.477
1515.8800, -54.454
1515.9000, -54.441
1515.9200, -54.421
1515.9400, -54.410
1515.9600, -54.395
1515.9800, -54.373
1516.0000, -54.360
1516.0200, -54.346
1516.0400, -54.327
1516.0600, -54.313
1516.0800, -54.300
1516.1000, -54.279
1516.1200, -54.259
1516.1400, -54.244
1516.1600, -54.223
1516.1800, -54.212
1516.2000, -54.210
1516.2200, -54.178
1516.2400, -54.166
1516.2600, -54.148
1516.2800, -54.145
1516.3000, -54.129
1516.3200, -54.118
1516.3400, -54.101
1516.3600, -54.072
1516.3800, -54.061
1516.4000, -54.039
1516.4200, -54.017
1516.4400, -54.001
1516.4600, -53.987
1516.4800, -53.980
1516.5000, -53.937
1516.5200, -53.925
1516.5400, -53.919
1516.5600, -53.903
1516.5800, -53.886
1516.6000, -53.870
1516.6200, -53.861
1516.6400, -53.851
1516.6600, -53.812
1516.6800, -53.799
1516.7000, -53.781
1516.7200, -53.759
1516.7400, -53.737
1516.7600, -53.721
1516.7800, -53.709
1516.8000, -53.701
1516.8200, -53.680
1516.8400, -53.678
1516.8600, -53.649
1516.8800, -53.629
1516.9000, -53.617
1516.9200, -53.592
1516.9400, -53.585
1516.9600, -53.559
1516.9800, -53.540
1517.0000, -53.523
1517.0200, -53.499
1517.0400, -53.477
1517.0600, -53.456
1517.0800, -53.448
1517.1000, -53.433
1517.1200, -53.408
1517.1400, -53.395
1517.1600, -53.374
1517.1800, -53.355
1517.2000, -53.340
1517.2200, -53.318
1517.2400, -53.305
1517.2600, -53.289
1517.2800, -53.274
1517.3000, -53.259
1517.3200, -53.232
1517.3400, -53.212
1517.3600, -53.196
1517.3800, -53.174
1517.4000, -53.147
1517.4200, -53.132
1517.4400, -53.107
1517.4600, -53.097
1517.4800, -53.067
1517.5000, -53.049
1517.5200, -53.040
1517.5400, -53.020
1517.5600, -53.005
1517.5800, -52.987
1517.6000, -52.962
1517.6200, -52.939
1517.6400, -52.918
1517.6600, -52.892
1517.6800, -52.880
1517.7000, -52.852
1517.7200, -52.822
1517.7400, -52.818
1517.7600, -52.792
1517.7800, -52.784
1517.8000, -52.764
1517.8200, -52.736
1517.8400, -52.726
1517.8600, -52.704
1517.8800, -52.682
1517.9000, -52.659
1517.9200, -52.637
1517.9400, -52.615
1517.9600, -52.587
1517.9800, -52.563
1518.0000, -52.554
1518.0200, -52.528
1518.0400, -52.515
1518.0600, -52.494
1518.0800, -52.471
1518.1000, -52.438
1518.1200, -52.428
1518.1400, -52.400
1518.1600, -52.388
1518.1800, -52.371
1518.2000, -52.350
1518.2200, -52.331
1518.2400, -52.309
1518.2600, -52.283
1518.2800, -52.258
1518.3000, -52.233
1518.3200, -52.213
1518.3400, -52.195
1518.3600, -52.166
1518.3800, -52.148
1518.4000, -52.135
1518.4200, -52.086
1518.4400, -52.083
1518.4600, -52.064
1518.4800, -52.047
1518.5000, -52.018
1518.5200, -51.998
1518.5400, -51.964
1518.5600, -51.941
1518.5800, -51.912
1518.6000, -51.891
1518.6200, -51.876
1518.6400, -51.852
1518.6600, -51.814
1518.6800, -51.806
1518.7000, -51.786
1518.7200, -51.766
1518.7400, -51.741
1518.7600, -51.716
1518.7800, -51.699
1518.8000, -51.675
1518.8200, -51.652
1518.8400, -51.628
1518.8600, -51.602
1518.8800, -51.579
1518.9000, -51.552
1518.9200, -51.524
1518.9400, -51.493
1518.9600, -51.477
1518.9800, -51.454
1519.0000, -51.437
1519.0200, -51.408
1519.0400, -51.381
1519.0600, -51.362
1519.0800, -51.334
1519.1000, -51.305
1519.1200, -51.287
1519.1400, -51.264
1519.1600, -51.241
1519.1800, -51.220
1519.2000, -51.181
1519.2200, -51.156
1519.2400, -51.132
1519.2600, -51.099
1519.2800, -51.084
1519.3000, -51.046
1519.3200, -51.027
1519.3400, -50.999
1519.3600, -50.953
1519.3800, -50.937
1519.4000, -50.919
1519.4200, -50.889
1519.4400, -50.864
1519.4600, -50.844
1519.4800, -50.813
1519.5000, -50.786
1519.5200, -50.748
1519.5400, -50.724
1519.5600, -50.702
1519.5800, -50.663
1519.6000, -50.620
1519.6200, -50.616
1519.6400, -50.594
1519.6600, -50.568
1519.6800, -50.536
1519.7000, -50.513
1519.7200, -50.483
1519.7400, -50.462
1519.7600, -50.429
1519.7800, -50.403
1519.8000, -50.375
1519.8200, -50.350
1519.8400, -50.317
1519.8600, -50.275
1519.8800, -50.253
1519.9000, -50.223
1519.9200, -50.199
1519.9400, -50.166
1519.9600, -50.138
1519.9800, -50.102
1520.0000, -50.078
1520.0200, -50.051
1520.0400, -50.020
1520.0600, -49.996
1520.0800, -49.968
1520.1000, -49.937
1520.1200, -49.908
1520.1400, -49.870
1520.1600, -49.837
1520.1800, -49.812
1520.2000, -49.772
1520.2200, -49.746
1520.2400, -49.706
1520.2600, -49.692
1520.2800, -49.646
1520.3000, -49.607
1520.3200, -49.584
1520.3400, -49.555
1520.3600, -49.528
1520.3800, -49.497
1520.4000, -49.469
1520.4200, -49.432
1520.4400, -49.402
1520.4600, -49.370
1520.4800, -49.330
1520.5000, -49.296
1520.5200, -49.258
1520.5400, -49.210
1520.5600, -49.196
1520.5800, -49.175
1520.6000, -49.139
1520.6200, -49.110
