70BCSV 	
// AQ6370B OPTICAL SPECTRUM ANALYZER //                 
25
"CTRWL",1550.000000
"SPAN", 100.000000
"START WL",1500.000000
"STOP WL",1600.000000
"WLFREQ", 0
"REFL",-28.8
"LSCL", 5.0
"RESLN",0.100
"AVG",   1
"SMPLAUTO",      0
"SMPL",       5001
"SMPLINTVL",0.0200
"HIGH1"
"MEAS"
"LSUNT",0
"NMSKH","OFF"
"RESCOR",0
"RESPARM", 9050
"FREQPARM", 9050






"[TRACE DATA]"
1500.0000, -61.827
1500.0200, -61.872
1500.0400, -61.817
1500.0600, -61.805
1500.0800, -61.844
1500.1000, -61.846
1500.1200, -61.783
1500.1400, -61.798
1500.1600, -61.825
1500.1800, -61.791
1500.2000, -61.819
1500.2200, -61.801
1500.2400, -61.793
1500.2600, -61.763
1500.2800, -61.767
1500.3000, -61.788
1500.3200, -61.778
1500.3400, -61.731
1500.3600, -61.749
1500.3800, -61.738
1500.4000, -61.723
1500.4200, -61.753
1500.4400, -61.716
1500.4600, -61.698
1500.4800, -61.746
1500.5000, -61.708
1500.5200, -61.697
1500.5400, -61.699
1500.5600, -61.695
1500.5800, -61.670
1500.6000, -61.678
1500.6200, -61.664
1500.6400, -61.669
1500.6600, -61.656
1500.6800, -61.643
1500.7000, -61.620
1500.7200, -61.665
1500.7400, -61.667
1500.7600, -61.621
1500.7800, -61.631
1500.8000, -61.587
1500.8200, -61.617
1500.8400, -61.615
1500.8600, -61.602
1500.8800, -61.604
1500.9000, -61.609
1500.9200, -61.610
1500.9400, -61.548
1500.9600, -61.550
1500.9800, -61.548
1501.0000, -61.557
1501.0200, -61.571
1501.0400, -61.558
1501.0600, -61.522
1501.0800, -61.558
1501.1000, -61.551
1501.1200, -61.541
1501.1400, -61.524
1501.1600, -61.486
1501.1800, -61.511
1501.2000, -61.516
1501.2200, -61.496
1501.2400, -61.505
1501.2600, -61.521
1501.2800, -61.458
1501.3000, -61.501
1501.3200, -61.463
1501.3400, -61.454
1501.3600, -61.461
1501.3800, -61.443
1501.4000, -61.455
1501.4200, -61.475
1501.4400, -61.417
1501.4600, -61.444
1501.4800, -61.398
1501.5000, -61.426
1501.5200, -61.415
1501.5400, -61.410
1501.5600, -61.392
1501.5800, -61.402
1501.6000, -61.375
1501.6200, -61.373
1501.6400, -61.378
1501.6600, -61.363
1501.6800, -61.371
1501.7000, -61.369
1501.7200, -61.361
1501.7400, -61.388
1501.7600, -61.334
1501.7800, -61.362
1501.8000, -61.330
1501.8200, -61.336
1501.8400, -61.319
1501.8600, -61.349
1501.8800, -61.328
1501.9000, -61.292
1501.9200, -61.312
1501.9400, -61.317
1501.9600, -61.286
1501.9800, -61.294
1502.0000, -61.279
1502.0200, -61.266
1502.0400, -61.251
1502.0600, -61.266
1502.0800, -61.264
1502.1000, -61.218
1502.1200, -61.227
1502.1400, -61.240
1502.1600, -61.235
1502.1800, -61.209
1502.2000, -61.236
1502.2200, -61.192
1502.2400, -61.208
1502.2600, -61.200
1502.2800, -61.187
1502.3000, -61.174
1502.3200, -61.184
1502.3400, -61.132
1502.3600, -61.187
1502.3800, -61.167
1502.4000, -61.120
1502.4200, -61.175
1502.4400, -61.098
1502.4600, -61.132
1502.4800, -61.134
1502.5000, -61.104
1502.5200, -61.110
1502.5400, -61.105
1502.5600, -61.100
1502.5800, -61.082
1502.6000, -61.074
1502.6200, -61.091
1502.6400, -61.063
1502.6600, -61.042
1502.6800, -61.068
1502.7000, -61.064
1502.7200, -61.033
1502.7400, -61.047
1502.7600, -61.010
1502.7800, -61.030
1502.8000, -61.019
1502.8200, -61.016
1502.8400, -60.996
1502.8600, -61.044
1502.8800, -61.024
1502.9000, -60.972
1502.9200, -60.971
1502.9400, -60.966
1502.9600, -60.952
1502.9800, -60.962
1503.0000, -60.953
1503.0200, -60.974
1503.0400, -60.939
1503.0600, -60.932
1503.0800, -60.918
1503.1000, -60.935
1503.1200, -60.919
1503.1400, -60.902
1503.1600, -60.903
1503.1800, -60.911
1503.2000, -60.880
1503.2200, -60.881
1503.2400, -60.873
1503.2600, -60.888
1503.2800, -60.830
1503.3000, -60.851
1503.3200, -60.834
1503.3400, -60.846
1503.3600, -60.839
1503.3800, -60.862
1503.4000, -60.797
1503.4200, -60.828
1503.4400, -60.804
1503.4600, -60.779
1503.4800, -60.781
1503.5000, -60.807
1503.5200, -60.768
1503.5400, -60.755
1503.5600, -60.758
1503.5800, -60.771
1503.6000, -60.758
1503.6200, -60.776
1503.6400, -60.736
1503.6600, -60.710
1503.6800, -60.730
1503.7000, -60.723
1503.7200, -60.711
1503.7400, -60.690
1503.7600, -60.713
1503.7800, -60.678
1503.8000, -60.691
1503.8200, -60.683
1503.8400, -60.716
1503.8600, -60.674
1503.8800, -60.631
1503.9000, -60.668
1503.9200, -60.649
1503.9400, -60.639
1503.9600, -60.630
1503.9800, -60.601
1504.0000, -60.641
1504.0200, -60.617
1504.0400, -60.628
1504.0600, -60.609
1504.0800, -60.638
1504.1000, -60.555
1504.1200, -60.572
1504.1400, -60.562
1504.1600, -60.569
1504.1800, -60.554
1504.2000, -60.544
1504.2200, -60.542
1504.2400, -60.526
1504.2600, -60.509
1504.2800, -60.527
1504.3000, -60.532
1504.3200, -60.496
1504.3400, -60.494
1504.3600, -60.488
1504.3800, -60.491
1504.4000, -60.484
1504.4200, -60.476
1504.4400, -60.461
1504.4600, -60.455
1504.4800, -60.431
1504.5000, -60.419
1504.5200, -60.423
1504.5400, -60.406
1504.5600, -60.412
1504.5800, -60.412
1504.6000, -60.408
1504.6200, -60.402
1504.6400, -60.370
1504.6600, -60.367
1504.6800, -60.395
1504.7000, -60.349
1504.7200, -60.366
1504.7400, -60.352
1504.7600, -60.345
1504.7800, -60.331
1504.8000, -60.340
1504.8200, -60.331
1504.8400, -60.326
1504.8600, -60.300
1504.8800, -60.330
1504.9000, -60.265
1504.9200, -60.272
1504.9400, -60.257
1504.9600, -60.304
1504.9800, -60.243
1505.0000, -60.238
1505.0200, -60.251
1505.0400, -60.241
1505.0600, -60.236
1505.0800, -60.223
1505.1000, -60.186
1505.1200, -60.201
1505.1400, -60.196
1505.1600, -60.198
1505.1800, -60.189
1505.2000, -60.159
1505.2200, -60.164
1505.2400, -60.173
1505.2600, -60.156
1505.2800, -60.136
1505.3000, -60.132
1505.3200, -60.127
1505.3400, -60.118
1505.3600, -60.114
1505.3800, -60.100
1505.4000, -60.098
1505.4200, -60.100
1505.4400, -60.076
1505.4600, -60.059
1505.4800, -60.049
1505.5000, -60.047
1505.5200, -60.050
1505.5400, -60.073
1505.5600, -60.033
1505.5800, -60.012
1505.6000, -60.014
1505.6200, -60.014
1505.6400, -60.013
1505.6600, -60.020
1505.6800, -59.981
1505.7000, -59.987
1505.7200, -59.977
1505.7400, -59.965
1505.7600, -59.960
1505.7800, -59.948
1505.8000, -59.966
1505.8200, -59.931
1505.8400, -59.934
1505.8600, -59.938
1505.8800, -59.899
1505.9000, -59.909
1505.9200, -59.885
1505.9400, -59.891
1505.9600, -59.875
1505.9800, -59.866
1506.0000, -59.873
1506.0200, -59.862
1506.0400, -59.847
1506.0600, -59.854
1506.0800, -59.827
1506.1000, -59.844
1506.1200, -59.819
1506.1400, -59.821
1506.1600, -59.807
1506.1800, -59.791
1506.2000, -59.751
1506.2200, -59.767
1506.2400, -59.755
1506.2600, -59.765
1506.2800, -59.761
1506.3000, -59.748
1506.3200, -59.734
1506.3400, -59.739
1506.3600, -59.728
1506.3800, -59.716
1506.4000, -59.716
1506.4200, -59.696
1506.4400, -59.708
1506.4600, -59.661
1506.4800, -59.687
1506.5000, -59.645
1506.5200, -59.660
1506.5400, -59.655
1506.5600, -59.637
1506.5800, -59.620
1506.6000, -59.631
1506.6200, -59.659
1506.6400, -59.615
1506.6600, -59.620
1506.6800, -59.599
1506.7000, -59.595
1506.7200, -59.575
1506.7400, -59.553
1506.7600, -59.576
1506.7800, -59.564
1506.8000, -59.543
1506.8200, -59.548
1506.8400, -59.521
1506.8600, -59.533
1506.8800, -59.522
1506.9000, -59.506
1506.9200, -59.482
1506.9400, -59.507
1506.9600, -59.479
1506.9800, -59.487
1507.0000, -59.465
1507.0200, -59.471
1507.0400, -59.441
1507.0600, -59.470
1507.0800, -59.438
1507.1000, -59.439
1507.1200, -59.420
1507.1400, -59.418
1507.1600, -59.405
1507.1800, -59.375
1507.2000, -59.389
1507.2200, -59.398
1507.2400, -59.380
1507.2600, -59.364
1507.2800, -59.359
1507.3000, -59.366
1507.3200, -59.351
1507.3400, -59.329
1507.3600, -59.317
1507.3800, -59.314
1507.4000, -59.305
1507.4200, -59.278
1507.4400, -59.305
1507.4600, -59.276
1507.4800, -59.269
1507.5000, -59.260
1507.5200, -59.257
1507.5400, -59.234
1507.5600, -59.236
1507.5800, -59.237
1507.6000, -59.226
1507.6200, -59.208
1507.6400, -59.218
1507.6600, -59.199
1507.6800, -59.193
1507.7000, -59.180
1507.7200, -59.172
1507.7400, -59.154
1507.7600, -59.170
1507.7800, -59.156
1507.8000, -59.134
1507.8200, -59.135
1507.8400, -59.123
1507.8600, -59.114
1507.8800, -59.111
1507.9000, -59.118
1507.9200, -59.085
1507.9400, -59.082
1507.9600, -59.074
1507.9800, -59.063
1508.0000, -59.065
1508.0200, -59.057
1508.0400, -59.016
1508.0600, -59.038
1508.0800, -59.026
1508.1000, -59.018
1508.1200, -58.990
1508.1400, -58.997
1508.1600, -58.992
1508.1800, -58.992
1508.2000, -58.973
1508.2200, -58.982
1508.2400, -58.970
1508.2600, -58.949
1508.2800, -58.947
1508.3000, -58.941
1508.3200, -58.936
1508.3400, -58.930
1508.3600, -58.915
1508.3800, -58.887
1508.4000, -58.875
1508.4200, -58.888
1508.4400, -58.879
1508.4600, -58.861
1508.4800, -58.866
1508.5000, -58.827
1508.5200, -58.823
1508.5400, -58.850
1508.5600, -58.858
1508.5800, -58.823
1508.6000, -58.795
1508.6200, -58.805
1508.6400, -58.779
1508.6600, -58.791
1508.6800, -58.776
1508.7000, -58.778
1508.7200, -58.772
1508.7400, -58.746
1508.7600, -58.726
1508.7800, -58.737
1508.8000, -58.726
1508.8200, -58.742
1508.8400, -58.722
1508.8600, -58.716
1508.8800, -58.721
1508.9000, -58.671
1508.9200, -58.683
1508.9400, -58.662
1508.9600, -58.657
1508.9800, -58.646
1509.0000, -58.656
1509.0200, -58.636
1509.0400, -58.624
1509.0600, -58.593
1509.0800, -58.608
1509.1000, -58.586
1509.1200, -58.598
1509.1400, -58.596
1509.1600, -58.559
1509.1800, -58.570
1509.2000, -58.551
1509.2200, -58.536
1509.2400, -58.536
1509.2600, -58.524
1509.2800, -58.503
1509.3000, -58.490
1509.3200, -58.492
1509.3400, -58.479
1509.3600, -58.461
1509.3800, -58.465
1509.4000, -58.455
1509.4200, -58.423
1509.4400, -58.434
1509.4600, -58.427
1509.4800, -58.440
1509.5000, -58.408
1509.5200, -58.402
1509.5400, -58.409
1509.5600, -58.395
1509.5800, -58.362
1509.6000, -58.362
1509.6200, -58.369
1509.6400, -58.367
1509.6600, -58.348
1509.6800, -58.324
1509.7000, -58.324
1509.7200, -58.312
1509.7400, -58.304
1509.7600, -58.309
1509.7800, -58.292
1509.8000, -58.282
1509.8200, -58.274
1509.8400, -58.264
1509.8600, -58.251
1509.8800, -58.245
1509.9000, -58.250
1509.9200, -58.221
1509.9400, -58.214
1509.9600, -58.209
1509.9800, -58.202
1510.0000, -58.185
1510.0200, -58.174
1510.0400, -58.159
1510.0600, -58.146
1510.0800, -58.159
1510.1000, -58.142
1510.1200, -58.129
1510.1400, -58.125
1510.1600, -58.127
1510.1800, -58.083
1510.2000, -58.080
1510.2200, -58.086
1510.2400, -58.066
1510.2600, -58.056
1510.2800, -58.052
1510.3000, -58.026
1510.3200, -58.019
1510.3400, -58.007
1510.3600, -57.995
1510.3800, -57.980
1510.4000, -57.980
1510.4200, -57.971
1510.4400, -57.957
1510.4600, -57.935
1510.4800, -57.944
1510.5000, -57.922
1510.5200, -57.922
1510.5400, -57.910
1510.5600, -57.894
1510.5800, -57.897
1510.6000, -57.893
1510.6200, -57.868
1510.6400, -57.838
1510.6600, -57.845
1510.6800, -57.850
1510.7000, -57.824
1510.7200, -57.809
1510.7400, -57.796
1510.7600, -57.794
1510.7800, -57.794
1510.8000, -57.771
1510.8200, -57.766
1510.8400, -57.769
1510.8600, -57.747
1510.8800, -57.724
1510.9000, -57.711
1510.9200, -57.716
1510.9400, -57.699
1510.9600, -57.699
1510.9800, -57.667
1511.0000, -57.655
1511.0200, -57.663
1511.0400, -57.637
1511.0600, -57.640
1511.0800, -57.629
1511.1000, -57.600
1511.1200, -57.595
1511.1400, -57.574
1511.1600, -57.576
1511.1800, -57.560
1511.2000, -57.548
1511.2200, -57.542
1511.2400, -57.517
1511.2600, -57.523
1511.2800, -57.535
1511.3000, -57.490
1511.3200, -57.490
1511.3400, -57.470
1511.3600, -57.454
1511.3800, -57.460
1511.4000, -57.442
1511.4200, -57.436
1511.4400, -57.408
1511.4600, -57.391
1511.4800, -57.391
1511.5000, -57.380
1511.5200, -57.370
1511.5400, -57.365
1511.5600, -57.333
1511.5800, -57.337
1511.6000, -57.325
1511.6200, -57.321
1511.6400, -57.311
1511.6600, -57.297
1511.6800, -57.281
1511.7000, -57.268
1511.7200, -57.259
1511.7400, -57.261
1511.7600, -57.243
1511.7800, -57.235
1511.8000, -57.208
1511.8200, -57.209
1511.8400, -57.212
1511.8600, -57.166
1511.8800, -57.168
1511.9000, -57.149
1511.9200, -57.144
1511.9400, -57.128
1511.9600, -57.124
1511.9800, -57.096
1512.0000, -57.109
1512.0200, -57.085
1512.0400, -57.082
1512.0600, -57.052
1512.0800, -57.059
1512.1000, -57.031
1512.1200, -57.034
1512.1400, -57.017
1512.1600, -57.005
1512.1800, -57.003
1512.2000, -56.989
1512.2200, -56.963
1512.2400, -56.972
1512.2600, -56.965
1512.2800, -56.934
1512.3000, -56.916
1512.3200, -56.922
1512.3400, -56.903
1512.3600, -56.904
1512.3800, -56.890
1512.4000, -56.878
1512.4200, -56.867
1512.4400, -56.851
1512.4600, -56.852
1512.4800, -56.828
1512.5000, -56.825
1512.5200, -56.812
1512.5400, -56.787
1512.5600, -56.772
1512.5800, -56.765
1512.6000, -56.760
1512.6200, -56.744
1512.6400, -56.732
1512.6600, -56.727
1512.6800, -56.724
1512.7000, -56.710
1512.7200, -56.691
1512.7400, -56.683
1512.7600, -56.676
1512.7800, -56.653
1512.8000, -56.641
1512.8200, -56.630
1512.8400, -56.626
1512.8600, -56.628
1512.8800, -56.589
1512.9000, -56.591
1512.9200, -56.577
1512.9400, -56.570
1512.9600, -56.559
1512.9800, -56.545
1513.0000, -56.526
1513.0200, -56.517
1513.0400, -56.508
1513.0600, -56.475
1513.0800, -56.477
1513.1000, -56.467
1513.1200, -56.455
1513.1400, -56.456
1513.1600, -56.433
1513.1800, -56.410
1513.2000, -56.402
1513.2200, -56.388
1513.2400, -56.371
1513.2600, -56.384
1513.2800, -56.353
1513.3000, -56.347
1513.3200, -56.335
1513.3400, -56.329
1513.3600, -56.301
1513.3800, -56.296
1513.4000, -56.298
1513.4200, -56.276
1513.4400, -56.278
1513.4600, -56.252
1513.4800, -56.244
1513.5000, -56.215
1513.5200, -56.210
1513.5400, -56.217
1513.5600, -56.189
1513.5800, -56.185
1513.6000, -56.161
1513.6200, -56.140
1513.6400, -56.157
1513.6600, -56.138
1513.6800, -56.110
1513.7000, -56.107
1513.7200, -56.090
1513.7400, -56.075
1513.7600, -56.061
1513.7800, -56.048
1513.8000, -56.032
1513.8200, -56.038
1513.8400, -56.003
1513.8600, -55.994
1513.8800, -55.983
1513.9000, -55.980
1513.9200, -55.963
1513.9400, -55.946
1513.9600, -55.942
1513.9800, -55.916
1514.0000, -55.906
1514.0200, -55.883
1514.0400, -55.882
1514.0600, -55.870
1514.0800, -55.857
1514.1000, -55.858
1514.1200, -55.837
1514.1400, -55.830
1514.1600, -55.822
1514.1800, -55.787
1514.2000, -55.775
1514.2200, -55.775
1514.2400, -55.763
1514.2600, -55.739
1514.2800, -55.736
1514.3000, -55.714
1514.3200, -55.708
1514.3400, -55.693
1514.3600, -55.683
1514.3800, -55.663
1514.4000, -55.656
1514.4200, -55.640
1514.4400, -55.615
1514.4600, -55.607
1514.4800, -55.592
1514.5000, -55.577
1514.5200, -55.564
1514.5400, -55.549
1514.5600, -55.539
1514.5800, -55.536
1514.6000, -55.528
1514.6200, -55.516
1514.6400, -55.511
1514.6600, -55.487
1514.6800, -55.465
1514.7000, -55.454
1514.7200, -55.442
1514.7400, -55.422
1514.7600, -55.413
1514.7800, -55.397
1514.8000, -55.379
1514.8200, -55.377
1514.8400, -55.376
1514.8600, -55.352
1514.8800, -55.339
1514.9000, -55.319
1514.9200, -55.304
1514.9400, -55.288
1514.9600, -55.275
1514.9800, -55.257
1515.0000, -55.240
1515.0200, -55.228
1515.0400, -55.218
1515.0600, -55.185
1515.0800, -55.187
1515.1000, -55.176
1515.1200, -55.170
1515.1400, -55.142
1515.1600, -55.135
1515.1800, -55.130
1515.2000, -55.111
1515.2200, -55.098
1515.2400, -55.069
1515.2600, -55.060
1515.2800, -55.045
1515.3000, -55.034
1515.3200, -55.022
1515.3400, -55.017
1515.3600, -55.001
1515.3800, -54.966
1515.4000, -54.956
1515.4200, -54.942
1515.4400, -54.921
1515.4600, -54.918
1515.4800, -54.890
1515.5000, -54.885
1515.5200, -54.876
1515.5400, -54.871
1515.5600, -54.848
1515.5800, -54.837
1515.6000, -54.830
1515.6200, -54.805
1515.6400, -54.791
1515.6600, -54.777
1515.6800, -54.750
1515.7000, -54.744
1515.7200, -54.719
1515.7400, -54.717
1515.7600, -54.686
1515.7800, -54.688
1515.8000, -54.676
1515.8200, -54.652
1515.8400, -54.648
1515.8600, -54.627
1515.8800, -54.609
1515.9000, -54.589
1515.9200, -54.569
1515.9400, -54.560
1515.9600, -54.542
1515.9800, -54.535
1516.0000, -54.497
1516.0200, -54.475
1516.0400, -54.463
1516.0600, -54.459
1516.0800, -54.449
1516.1000, -54.431
1516.1200, -54.436
1516.1400, -54.405
1516.1600, -54.394
1516.1800, -54.378
1516.2000, -54.354
1516.2200, -54.342
1516.2400, -54.330
1516.2600, -54.325
1516.2800, -54.303
1516.3000, -54.301
1516.3200, -54.270
1516.3400, -54.246
1516.3600, -54.237
1516.3800, -54.238
1516.4000, -54.196
1516.4200, -54.166
1516.4400, -54.157
1516.4600, -54.157
1516.4800, -54.135
1516.5000, -54.116
1516.5200, -54.104
1516.5400, -54.091
1516.5600, -54.072
1516.5800, -54.043
1516.6000, -54.035
1516.6200, -54.026
1516.6400, -53.997
1516.6600, -53.980
1516.6800, -53.967
1516.7000, -53.948
1516.7200, -53.939
1516.7400, -53.919
1516.7600, -53.895
1516.7800, -53.883
1516.8000, -53.868
1516.8200, -53.848
1516.8400, -53.830
1516.8600, -53.803
1516.8800, -53.787
1516.9000, -53.769
1516.9200, -53.762
1516.9400, -53.736
1516.9600, -53.713
1516.9800, -53.699
1517.0000, -53.693
1517.0200, -53.669
1517.0400, -53.650
1517.0600, -53.631
1517.0800, -53.613
1517.1000, -53.593
1517.1200, -53.565
1517.1400, -53.564
1517.1600, -53.541
1517.1800, -53.525
1517.2000, -53.505
1517.2200, -53.492
1517.2400, -53.474
1517.2600, -53.451
1517.2800, -53.414
1517.3000, -53.428
1517.3200, -53.410
1517.3400, -53.391
1517.3600, -53.343
1517.3800, -53.338
1517.4000, -53.323
1517.4200, -53.309
1517.4400, -53.291
1517.4600, -53.272
1517.4800, -53.250
1517.5000, -53.229
1517.5200, -53.198
1517.5400, -53.192
1517.5600, -53.182
1517.5800, -53.147
1517.6000, -53.139
1517.6200, -53.131
1517.6400, -53.100
1517.6600, -53.084
1517.6800, -53.060
1517.7000, -53.032
1517.7200, -53.007
1517.7400, -52.990
1517.7600, -52.962
1517.7800, -52.952
1517.8000, -52.931
1517.8200, -52.908
1517.8400, -52.884
1517.8600, -52.860
1517.8800, -52.844
1517.9000, -52.840
1517.9200, -52.814
1517.9400, -52.787
1517.9600, -52.759
1517.9800, -52.743
1518.0000, -52.730
1518.0200, -52.709
1518.0400, -52.686
1518.0600, -52.663
1518.0800, -52.636
1518.1000, -52.617
1518.1200, -52.603
1518.1400, -52.585
1518.1600, -52.566
1518.1800, -52.535
1518.2000, -52.516
1518.2200, -52.491
1518.2400, -52.476
1518.2600, -52.473
1518.2800, -52.454
1518.3000, -52.420
1518.3200, -52.387
1518.3400, -52.372
1518.3600, -52.365
1518.3800, -52.342
1518.4000, -52.317
1518.4200, -52.291
1518.4400, -52.267
1518.4600, -52.244
1518.4800, -52.217
1518.5000, -52.196
1518.5200, -52.174
1518.5400, -52.147
1518.5600, -52.131
1518.5800, -52.100
1518.6000, -52.084
1518.6200, -52.064
1518.6400, -52.034
1518.6600, -52.008
1518.6800, -51.990
1518.7000, -51.961
1518.7200, -51.941
1518.7400, -51.916
1518.7600, -51.890
1518.7800, -51.869
1518.8000, -51.857
1518.8200, -51.834
1518.8400, -51.818
1518.8600, -51.794
1518.8800, -51.762
1518.9000, -51.739
1518.9200, -51.709
1518.9400, -51.689
1518.9600, -51.667
1518.9800, -51.645
1519.0000, -51.621
1519.0200, -51.590
1519.0400, -51.570
1519.0600, -51.541
1519.0800, -51.521
1519.1000, -51.502
1519.1200, -51.466
1519.1400, -51.446
1519.1600, -51.410
1519.1800, -51.401
1519.2000, -51.387
1519.2200, -51.360
1519.2400, -51.324
1519.2600, -51.283
1519.2800, -51.253
1519.3000, -51.247
1519.3200, -51.219
1519.3400, -51.174
1519.3600, -51.150
1519.3800, -51.140
1519.4000, -51.097
1519.4200, -51.092
1519.4400, -51.053
1519.4600, -51.016
1519.4800, -50.996
1519.5000, -50.982
1519.5200, -50.949
1519.5400, -50.913
1519.5600, -50.902
1519.5800, -50.857
1519.6000, -50.829
1519.6200, -50.810
1519.6400, -50.773
1519.6600, -50.764
1519.6800, -50.720
1519.7000, -50.693
1519.7200, -50.677
1519.7400, -50.658
1519.7600, -50.613
1519.7800, -50.590
1519.8000, -50.569
1519.8200, -50.528
1519.8400, -50.501
1519.8600, -50.474
1519.8800, -50.445
1519.9000, -50.411
1519.9200, -50.391
1519.9400, -50.358
1519.9600, -50.335
1519.9800, -50.307
1520.0000, -50.273
1520.0200, -50.252
1520.0400, -50.220
1520.0600, -50.180
1520.0800, -50.155
1520.1000, -50.116
1520.1200, -50.111
1520.1400, -50.075
1520.1600, -50.050
1520.1800, -50.008
1520.2000, -49.964
1520.2200, -49.946
1520.2400, -49.923
1520.2600, -49.877
1520.2800, -49.846
1520.3000, -49.815
1520.3200, -49.790
1520.3400, -49.758
1520.3600, -49.732
1520.3800, -49.692
1520.4000, -49.656
1520.4200, -49.627
1520.4400, -49.610
1520.4600, -49.565
1520.4800, -49.532
1520.5000, -49.512
1520.5200, -49.466
1520.5400, -49.432
1520.5600, -49.403
1520.5800, -49.364
1520.6000, -49.332
1520.6200, -49.295
