70BCSV 	
// AQ6370B OPTICAL SPECTRUM ANALYZER //                 
25
"CTRWL",1550.000000
"SPAN", 100.000000
"START WL",1500.000000
"STOP WL",1600.000000
"WLFREQ", 0
"REFL",-28.8
"LSCL", 5.0
"RESLN",0.100
"AVG",   1
"SMPLAUTO",      0
"SMPL",       5001
"SMPLINTVL",0.0200
"HIGH1"
"MEAS"
"LSUNT",0
"NMSKH","OFF"
"RESCOR",0
"RESPARM", 9050
"FREQPARM", 9050






"[TRACE DATA]"
1500.0000, -61.762
1500.0200, -61.762
1500.0400, -61.719
1500.0600, -61.730
1500.0800, -61.724
1500.1000, -61.723
1500.1200, -61.725
1500.1400, -61.719
1500.1600, -61.704
1500.1800, -61.681
1500.2000, -61.713
1500.2200, -61.752
1500.2400, -61.662
1500.2600, -61.657
1500.2800, -61.654
1500.3000, -61.685
1500.3200, -61.667
1500.3400, -61.638
1500.3600, -61.642
1500.3800, -61.638
1500.4000, -61.600
1500.4200, -61.668
1500.4400, -61.639
1500.4600, -61.609
1500.4800, -61.614
1500.5000, -61.607
1500.5200, -61.612
1500.5400, -61.579
1500.5600, -61.564
1500.5800, -61.579
1500.6000, -61.608
1500.6200, -61.555
1500.6400, -61.573
1500.6600, -61.569
1500.6800, -61.576
1500.7000, -61.549
1500.7200, -61.567
1500.7400, -61.566
1500.7600, -61.543
1500.7800, -61.508
1500.8000, -61.512
1500.8200, -61.525
1500.8400, -61.538
1500.8600, -61.501
1500.8800, -61.515
1500.9000, -61.477
1500.9200, -61.482
1500.9400, -61.453
1500.9600, -61.486
1500.9800, -61.500
1501.0000, -61.484
1501.0200, -61.434
1501.0400, -61.456
1501.0600, -61.484
1501.0800, -61.443
1501.1000, -61.423
1501.1200, -61.437
1501.1400, -61.423
1501.1600, -61.456
1501.1800, -61.411
1501.2000, -61.411
1501.2200, -61.384
1501.2400, -61.434
1501.2600, -61.366
1501.2800, -61.399
1501.3000, -61.388
1501.3200, -61.373
1501.3400, -61.378
1501.3600, -61.360
1501.3800, -61.358
1501.4000, -61.364
1501.4200, -61.345
1501.4400, -61.333
1501.4600, -61.350
1501.4800, -61.309
1501.5000, -61.317
1501.5200, -61.337
1501.5400, -61.303
1501.5600, -61.293
1501.5800, -61.301
1501.6000, -61.300
1501.6200, -61.298
1501.6400, -61.309
1501.6600, -61.265
1501.6800, -61.266
1501.7000, -61.261
1501.7200, -61.258
1501.7400, -61.292
1501.7600, -61.256
1501.7800, -61.225
1501.8000, -61.225
1501.8200, -61.227
1501.8400, -61.259
1501.8600, -61.234
1501.8800, -61.262
1501.9000, -61.231
1501.9200, -61.187
1501.9400, -61.201
1501.9600, -61.202
1501.9800, -61.208
1502.0000, -61.191
1502.0200, -61.171
1502.0400, -61.158
1502.0600, -61.186
1502.0800, -61.166
1502.1000, -61.165
1502.1200, -61.109
1502.1400, -61.158
1502.1600, -61.116
1502.1800, -61.127
1502.2000, -61.123
1502.2200, -61.098
1502.2400, -61.113
1502.2600, -61.093
1502.2800, -61.071
1502.3000, -61.092
1502.3200, -61.079
1502.3400, -61.045
1502.3600, -61.071
1502.3800, -61.065
1502.4000, -61.050
1502.4200, -61.035
1502.4400, -61.044
1502.4600, -61.036
1502.4800, -60.998
1502.5000, -61.030
1502.5200, -60.989
1502.5400, -61.019
1502.5600, -61.009
1502.5800, -61.000
1502.6000, -60.943
1502.6200, -60.958
1502.6400, -60.989
1502.6600, -60.955
1502.6800, -60.976
1502.7000, -60.961
1502.7200, -60.977
1502.7400, -60.914
1502.7600, -60.914
1502.7800, -60.935
1502.8000, -60.950
1502.8200, -60.938
1502.8400, -60.894
1502.8600, -60.900
1502.8800, -60.886
1502.9000, -60.903
1502.9200, -60.907
1502.9400, -60.873
1502.9600, -60.872
1502.9800, -60.883
1503.0000, -60.836
1503.0200, -60.865
1503.0400, -60.836
1503.0600, -60.825
1503.0800, -60.814
1503.1000, -60.813
1503.1200, -60.810
1503.1400, -60.832
1503.1600, -60.806
1503.1800, -60.784
1503.2000, -60.790
1503.2200, -60.772
1503.2400, -60.776
1503.2600, -60.777
1503.2800, -60.755
1503.3000, -60.741
1503.3200, -60.749
1503.3400, -60.739
1503.3600, -60.740
1503.3800, -60.746
1503.4000, -60.706
1503.4200, -60.707
1503.4400, -60.694
1503.4600, -60.718
1503.4800, -60.661
1503.5000, -60.698
1503.5200, -60.680
1503.5400, -60.662
1503.5600, -60.669
1503.5800, -60.655
1503.6000, -60.672
1503.6200, -60.631
1503.6400, -60.632
1503.6600, -60.642
1503.6800, -60.623
1503.7000, -60.633
1503.7200, -60.602
1503.7400, -60.642
1503.7600, -60.590
1503.7800, -60.564
1503.8000, -60.590
1503.8200, -60.593
1503.8400, -60.581
1503.8600, -60.595
1503.8800, -60.548
1503.9000, -60.572
1503.9200, -60.537
1503.9400, -60.560
1503.9600, -60.537
1503.9800, -60.534
1504.0000, -60.514
1504.0200, -60.519
1504.0400, -60.518
1504.0600, -60.517
1504.0800, -60.486
1504.1000, -60.475
1504.1200, -60.492
1504.1400, -60.443
1504.1600, -60.442
1504.1800, -60.441
1504.2000, -60.444
1504.2200, -60.424
1504.2400, -60.422
1504.2600, -60.431
1504.2800, -60.409
1504.3000, -60.401
1504.3200, -60.397
1504.3400, -60.394
1504.3600, -60.372
1504.3800, -60.378
1504.4000, -60.371
1504.4200, -60.358
1504.4400, -60.360
1504.4600, -60.347
1504.4800, -60.350
1504.5000, -60.335
1504.5200, -60.354
1504.5400, -60.314
1504.5600, -60.276
1504.5800, -60.302
1504.6000, -60.293
1504.6200, -60.283
1504.6400, -60.281
1504.6600, -60.264
1504.6800, -60.259
1504.7000, -60.268
1504.7200, -60.268
1504.7400, -60.253
1504.7600, -60.213
1504.7800, -60.258
1504.8000, -60.237
1504.8200, -60.237
1504.8400, -60.207
1504.8600, -60.196
1504.8800, -60.182
1504.9000, -60.179
1504.9200, -60.200
1504.9400, -60.159
1504.9600, -60.160
1504.9800, -60.161
1505.0000, -60.139
1505.0200, -60.141
1505.0400, -60.105
1505.0600, -60.140
1505.0800, -60.080
1505.1000, -60.120
1505.1200, -60.097
1505.1400, -60.063
1505.1600, -60.084
1505.1800, -60.106
1505.2000, -60.077
1505.2200, -60.051
1505.2400, -60.033
1505.2600, -60.044
1505.2800, -60.055
1505.3000, -60.008
1505.3200, -60.030
1505.3400, -59.987
1505.3600, -59.998
1505.3800, -60.001
1505.4000, -59.983
1505.4200, -59.971
1505.4400, -59.975
1505.4600, -59.976
1505.4800, -59.966
1505.5000, -59.949
1505.5200, -59.941
1505.5400, -59.930
1505.5600, -59.921
1505.5800, -59.937
1505.6000, -59.923
1505.6200, -59.899
1505.6400, -59.903
1505.6600, -59.887
1505.6800, -59.880
1505.7000, -59.879
1505.7200, -59.871
1505.7400, -59.865
1505.7600, -59.836
1505.7800, -59.830
1505.8000, -59.835
1505.8200, -59.847
1505.8400, -59.814
1505.8600, -59.820
1505.8800, -59.817
1505.9000, -59.818
1505.9200, -59.781
1505.9400, -59.783
1505.9600, -59.774
1505.9800, -59.768
1506.0000, -59.780
1506.0200, -59.756
1506.0400, -59.734
1506.0600, -59.713
1506.0800, -59.701
1506.1000, -59.738
1506.1200, -59.721
1506.1400, -59.693
1506.1600, -59.687
1506.1800, -59.692
1506.2000, -59.672
1506.2200, -59.672
1506.2400, -59.673
1506.2600, -59.645
1506.2800, -59.638
1506.3000, -59.620
1506.3200, -59.653
1506.3400, -59.610
1506.3600, -59.609
1506.3800, -59.598
1506.4000, -59.596
1506.4200, -59.600
1506.4400, -59.590
1506.4600, -59.577
1506.4800, -59.566
1506.5000, -59.574
1506.5200, -59.549
1506.5400, -59.558
1506.5600, -59.538
1506.5800, -59.538
1506.6000, -59.518
1506.6200, -59.491
1506.6400, -59.508
1506.6600, -59.471
1506.6800, -59.497
1506.7000, -59.475
1506.7200, -59.473
1506.7400, -59.469
1506.7600, -59.451
1506.7800, -59.448
1506.8000, -59.446
1506.8200, -59.443
1506.8400, -59.445
1506.8600, -59.425
1506.8800, -59.413
1506.9000, -59.410
1506.9200, -59.394
1506.9400, -59.375
1506.9600, -59.371
1506.9800, -59.360
1507.0000, -59.360
1507.0200, -59.349
1507.0400, -59.347
1507.0600, -59.316
1507.0800, -59.323
1507.1000, -59.315
1507.1200, -59.323
1507.1400, -59.295
1507.1600, -59.295
1507.1800, -59.287
1507.2000, -59.276
1507.2200, -59.263
1507.2400, -59.261
1507.2600, -59.263
1507.2800, -59.261
1507.3000, -59.237
1507.3200, -59.243
1507.3400, -59.224
1507.3600, -59.233
1507.3800, -59.191
1507.4000, -59.203
1507.4200, -59.189
1507.4400, -59.180
1507.4600, -59.178
1507.4800, -59.151
1507.5000, -59.150
1507.5200, -59.156
1507.5400, -59.128
1507.5600, -59.116
1507.5800, -59.116
1507.6000, -59.103
1507.6200, -59.108
1507.6400, -59.086
1507.6600, -59.073
1507.6800, -59.083
1507.7000, -59.076
1507.7200, -59.057
1507.7400, -59.067
1507.7600, -59.042
1507.7800, -59.036
1507.8000, -59.039
1507.8200, -59.020
1507.8400, -59.018
1507.8600, -58.995
1507.8800, -58.996
1507.9000, -58.975
1507.9200, -58.961
1507.9400, -58.967
1507.9600, -58.952
1507.9800, -58.946
1508.0000, -58.945
1508.0200, -58.942
1508.0400, -58.910
1508.0600, -58.919
1508.0800, -58.924
1508.1000, -58.908
1508.1200, -58.883
1508.1400, -58.885
1508.1600, -58.872
1508.1800, -58.863
1508.2000, -58.860
1508.2200, -58.842
1508.2400, -58.833
1508.2600, -58.843
1508.2800, -58.822
1508.3000, -58.833
1508.3200, -58.829
1508.3400, -58.801
1508.3600, -58.804
1508.3800, -58.775
1508.4000, -58.785
1508.4200, -58.782
1508.4400, -58.752
1508.4600, -58.759
1508.4800, -58.741
1508.5000, -58.742
1508.5200, -58.723
1508.5400, -58.719
1508.5600, -58.726
1508.5800, -58.692
1508.6000, -58.704
1508.6200, -58.683
1508.6400, -58.666
1508.6600, -58.658
1508.6800, -58.654
1508.7000, -58.660
1508.7200, -58.648
1508.7400, -58.642
1508.7600, -58.627
1508.7800, -58.615
1508.8000, -58.622
1508.8200, -58.623
1508.8400, -58.599
1508.8600, -58.586
1508.8800, -58.576
1508.9000, -58.573
1508.9200, -58.545
1508.9400, -58.535
1508.9600, -58.518
1508.9800, -58.523
1509.0000, -58.518
1509.0200, -58.510
1509.0400, -58.507
1509.0600, -58.499
1509.0800, -58.497
1509.1000, -58.486
1509.1200, -58.474
1509.1400, -58.469
1509.1600, -58.443
1509.1800, -58.412
1509.2000, -58.422
1509.2200, -58.424
1509.2400, -58.414
1509.2600, -58.415
1509.2800, -58.387
1509.3000, -58.384
1509.3200, -58.385
1509.3400, -58.368
1509.3600, -58.360
1509.3800, -58.351
1509.4000, -58.343
1509.4200, -58.340
1509.4400, -58.315
1509.4600, -58.302
1509.4800, -58.303
1509.5000, -58.290
1509.5200, -58.290
1509.5400, -58.282
1509.5600, -58.269
1509.5800, -58.261
1509.6000, -58.264
1509.6200, -58.244
1509.6400, -58.229
1509.6600, -58.219
1509.6800, -58.238
1509.7000, -58.207
1509.7200, -58.188
1509.7400, -58.202
1509.7600, -58.161
1509.7800, -58.171
1509.8000, -58.167
1509.8200, -58.145
1509.8400, -58.132
1509.8600, -58.124
1509.8800, -58.128
1509.9000, -58.109
1509.9200, -58.095
1509.9400, -58.090
1509.9600, -58.082
1509.9800, -58.087
1510.0000, -58.070
1510.0200, -58.056
1510.0400, -58.070
1510.0600, -58.027
1510.0800, -58.034
1510.1000, -58.007
1510.1200, -57.988
1510.1400, -58.002
1510.1600, -57.992
1510.1800, -57.965
1510.2000, -57.969
1510.2200, -57.962
1510.2400, -57.945
1510.2600, -57.947
1510.2800, -57.924
1510.3000, -57.919
1510.3200, -57.918
1510.3400, -57.885
1510.3600, -57.891
1510.3800, -57.875
1510.4000, -57.857
1510.4200, -57.863
1510.4400, -57.830
1510.4600, -57.820
1510.4800, -57.820
1510.5000, -57.805
1510.5200, -57.796
1510.5400, -57.798
1510.5600, -57.779
1510.5800, -57.750
1510.6000, -57.772
1510.6200, -57.742
1510.6400, -57.732
1510.6600, -57.731
1510.6800, -57.713
1510.7000, -57.724
1510.7200, -57.690
1510.7400, -57.673
1510.7600, -57.687
1510.7800, -57.654
1510.8000, -57.652
1510.8200, -57.643
1510.8400, -57.616
1510.8600, -57.610
1510.8800, -57.600
1510.9000, -57.588
1510.9200, -57.598
1510.9400, -57.577
1510.9600, -57.560
1510.9800, -57.570
1511.0000, -57.547
1511.0200, -57.524
1511.0400, -57.516
1511.0600, -57.509
1511.0800, -57.492
1511.1000, -57.480
1511.1200, -57.468
1511.1400, -57.454
1511.1600, -57.453
1511.1800, -57.449
1511.2000, -57.430
1511.2200, -57.426
1511.2400, -57.407
1511.2600, -57.411
1511.2800, -57.383
1511.3000, -57.376
1511.3200, -57.366
1511.3400, -57.354
1511.3600, -57.327
1511.3800, -57.332
1511.4000, -57.312
1511.4200, -57.304
1511.4400, -57.293
1511.4600, -57.289
1511.4800, -57.265
1511.5000, -57.257
1511.5200, -57.253
1511.5400, -57.229
1511.5600, -57.223
1511.5800, -57.217
1511.6000, -57.215
1511.6200, -57.201
1511.6400, -57.184
1511.6600, -57.166
1511.6800, -57.162
1511.7000, -57.157
1511.7200, -57.143
1511.7400, -57.126
1511.7600, -57.116
1511.7800, -57.096
1511.8000, -57.098
1511.8200, -57.070
1511.8400, -57.070
1511.8600, -57.061
1511.8800, -57.037
1511.9000, -57.026
1511.9200, -57.022
1511.9400, -57.013
1511.9600, -56.993
1511.9800, -56.986
1512.0000, -56.967
1512.0200, -56.954
1512.0400, -56.947
1512.0600, -56.936
1512.0800, -56.927
1512.1000, -56.935
1512.1200, -56.893
1512.1400, -56.895
1512.1600, -56.902
1512.1800, -56.880
1512.2000, -56.847
1512.2200, -56.864
1512.2400, -56.833
1512.2600, -56.841
1512.2800, -56.811
1512.3000, -56.816
1512.3200, -56.795
1512.3400, -56.784
1512.3600, -56.762
1512.3800, -56.758
1512.4000, -56.754
1512.4200, -56.744
1512.4400, -56.723
1512.4600, -56.714
1512.4800, -56.708
1512.5000, -56.700
1512.5200, -56.682
1512.5400, -56.671
1512.5600, -56.664
1512.5800, -56.645
1512.6000, -56.635
1512.6200, -56.631
1512.6400, -56.619
1512.6600, -56.605
1512.6800, -56.587
1512.7000, -56.574
1512.7200, -56.570
1512.7400, -56.546
1512.7600, -56.541
1512.7800, -56.536
1512.8000, -56.509
1512.8200, -56.508
1512.8400, -56.498
1512.8600, -56.488
1512.8800, -56.473
1512.9000, -56.473
1512.9200, -56.459
1512.9400, -56.438
1512.9600, -56.411
1512.9800, -56.403
1513.0000, -56.389
1513.0200, -56.376
1513.0400, -56.370
1513.0600, -56.371
1513.0800, -56.341
1513.1000, -56.338
1513.1200, -56.323
1513.1400, -56.318
1513.1600, -56.309
1513.1800, -56.296
1513.2000, -56.285
1513.2200, -56.264
1513.2400, -56.262
1513.2600, -56.243
1513.2800, -56.229
1513.3000, -56.226
1513.3200, -56.208
1513.3400, -56.205
1513.3600, -56.172
1513.3800, -56.169
1513.4000, -56.148
1513.4200, -56.146
1513.4400, -56.136
1513.4600, -56.122
1513.4800, -56.110
1513.5000, -56.103
1513.5200, -56.079
1513.5400, -56.080
1513.5600, -56.054
1513.5800, -56.048
1513.6000, -56.040
1513.6200, -56.035
1513.6400, -56.003
1513.6600, -55.994
1513.6800, -55.985
1513.7000, -55.964
1513.7200, -55.957
1513.7400, -55.947
1513.7600, -55.935
1513.7800, -55.930
1513.8000, -55.907
1513.8200, -55.907
1513.8400, -55.890
1513.8600, -55.864
1513.8800, -55.853
1513.9000, -55.852
1513.9200, -55.819
1513.9400, -55.813
1513.9600, -55.816
1513.9800, -55.793
1514.0000, -55.777
1514.0200, -55.773
1514.0400, -55.757
1514.0600, -55.741
1514.0800, -55.724
1514.1000, -55.715
1514.1200, -55.707
1514.1400, -55.700
1514.1600, -55.675
1514.1800, -55.669
1514.2000, -55.652
1514.2200, -55.630
1514.2400, -55.627
1514.2600, -55.621
1514.2800, -55.601
1514.3000, -55.580
1514.3200, -55.576
1514.3400, -55.567
1514.3600, -55.538
1514.3800, -55.531
1514.4000, -55.528
1514.4200, -55.508
1514.4400, -55.495
1514.4600, -55.492
1514.4800, -55.471
1514.5000, -55.460
1514.5200, -55.447
1514.5400, -55.437
1514.5600, -55.420
1514.5800, -55.401
1514.6000, -55.389
1514.6200, -55.373
1514.6400, -55.367
1514.6600, -55.338
1514.6800, -55.351
1514.7000, -55.313
1514.7200, -55.302
1514.7400, -55.300
1514.7600, -55.290
1514.7800, -55.267
1514.8000, -55.254
1514.8200, -55.236
1514.8400, -55.232
1514.8600, -55.223
1514.8800, -55.199
1514.9000, -55.185
1514.9200, -55.179
1514.9400, -55.161
1514.9600, -55.137
1514.9800, -55.132
1515.0000, -55.120
1515.0200, -55.094
1515.0400, -55.092
1515.0600, -55.073
1515.0800, -55.059
1515.1000, -55.038
1515.1200, -55.023
1515.1400, -55.019
1515.1600, -54.995
1515.1800, -54.984
1515.2000, -54.968
1515.2200, -54.955
1515.2400, -54.945
1515.2600, -54.926
1515.2800, -54.908
1515.3000, -54.896
1515.3200, -54.883
1515.3400, -54.865
1515.3600, -54.858
1515.3800, -54.848
1515.4000, -54.837
1515.4200, -54.821
1515.4400, -54.811
1515.4600, -54.781
1515.4800, -54.767
1515.5000, -54.760
1515.5200, -54.736
1515.5400, -54.721
1515.5600, -54.700
1515.5800, -54.698
1515.6000, -54.681
1515.6200, -54.673
1515.6400, -54.655
1515.6600, -54.636
1515.6800, -54.631
1515.7000, -54.614
1515.7200, -54.592
1515.7400, -54.583
1515.7600, -54.565
1515.7800, -54.548
1515.8000, -54.533
1515.8200, -54.512
1515.8400, -54.506
1515.8600, -54.500
1515.8800, -54.470
1515.9000, -54.450
1515.9200, -54.447
1515.9400, -54.429
1515.9600, -54.406
1515.9800, -54.393
1516.0000, -54.381
1516.0200, -54.361
1516.0400, -54.350
1516.0600, -54.339
1516.0800, -54.321
1516.1000, -54.303
1516.1200, -54.278
1516.1400, -54.264
1516.1600, -54.251
1516.1800, -54.234
1516.2000, -54.229
1516.2200, -54.203
1516.2400, -54.182
1516.2600, -54.174
1516.2800, -54.167
1516.3000, -54.146
1516.3200, -54.134
1516.3400, -54.120
1516.3600, -54.096
1516.3800, -54.085
1516.4000, -54.069
1516.4200, -54.045
1516.4400, -54.025
1516.4600, -54.005
1516.4800, -54.000
1516.5000, -53.970
1516.5200, -53.957
1516.5400, -53.934
1516.5600, -53.929
1516.5800, -53.895
1516.6000, -53.889
1516.6200, -53.884
1516.6400, -53.867
1516.6600, -53.845
1516.6800, -53.821
1516.7000, -53.811
1516.7200, -53.792
1516.7400, -53.773
1516.7600, -53.750
1516.7800, -53.733
1516.8000, -53.718
1516.8200, -53.700
1516.8400, -53.680
1516.8600, -53.673
1516.8800, -53.655
1516.9000, -53.632
1516.9200, -53.615
1516.9400, -53.600
1516.9600, -53.582
1516.9800, -53.568
1517.0000, -53.534
1517.0200, -53.527
1517.0400, -53.512
1517.0600, -53.485
1517.0800, -53.466
1517.1000, -53.444
1517.1200, -53.437
1517.1400, -53.409
1517.1600, -53.395
1517.1800, -53.377
1517.2000, -53.358
1517.2200, -53.345
1517.2400, -53.326
1517.2600, -53.306
1517.2800, -53.291
1517.3000, -53.266
1517.3200, -53.246
1517.3400, -53.233
1517.3600, -53.217
1517.3800, -53.204
1517.4000, -53.170
1517.4200, -53.159
1517.4400, -53.132
1517.4600, -53.111
1517.4800, -53.094
1517.5000, -53.073
1517.5200, -53.050
1517.5400, -53.044
1517.5600, -53.013
1517.5800, -53.005
1517.6000, -52.992
1517.6200, -52.969
1517.6400, -52.955
1517.6600, -52.930
1517.6800, -52.903
1517.7000, -52.874
1517.7200, -52.861
1517.7400, -52.834
1517.7600, -52.816
1517.7800, -52.801
1517.8000, -52.765
1517.8200, -52.767
1517.8400, -52.746
1517.8600, -52.725
1517.8800, -52.706
1517.9000, -52.686
1517.9200, -52.667
1517.9400, -52.647
1517.9600, -52.631
1517.9800, -52.596
1518.0000, -52.577
1518.0200, -52.554
1518.0400, -52.535
1518.0600, -52.518
1518.0800, -52.499
1518.1000, -52.478
1518.1200, -52.461
1518.1400, -52.427
1518.1600, -52.412
1518.1800, -52.395
1518.2000, -52.377
1518.2200, -52.354
1518.2400, -52.333
1518.2600, -52.315
1518.2800, -52.294
1518.3000, -52.267
1518.3200, -52.250
1518.3400, -52.227
1518.3600, -52.203
1518.3800, -52.178
1518.4000, -52.156
1518.4200, -52.130
1518.4400, -52.118
1518.4600, -52.075
1518.4800, -52.059
1518.5000, -52.044
1518.5200, -52.026
1518.5400, -52.000
1518.5600, -51.973
1518.5800, -51.953
1518.6000, -51.929
1518.6200, -51.905
1518.6400, -51.882
1518.6600, -51.852
1518.6800, -51.829
1518.7000, -51.796
1518.7200, -51.791
1518.7400, -51.752
1518.7600, -51.744
1518.7800, -51.721
1518.8000, -51.695
1518.8200, -51.672
1518.8400, -51.652
1518.8600, -51.629
1518.8800, -51.604
1518.9000, -51.585
1518.9200, -51.556
1518.9400, -51.528
1518.9600, -51.506
1518.9800, -51.480
1519.0000, -51.459
1519.0200, -51.432
1519.0400, -51.420
1519.0600, -51.393
1519.0800, -51.364
1519.1000, -51.331
1519.1200, -51.311
1519.1400, -51.284
1519.1600, -51.264
1519.1800, -51.239
1519.2000, -51.217
1519.2200, -51.183
1519.2400, -51.161
1519.2600, -51.140
1519.2800, -51.113
1519.3000, -51.076
1519.3200, -51.051
1519.3400, -51.023
1519.3600, -50.997
1519.3800, -50.979
1519.4000, -50.951
1519.4200, -50.909
1519.4400, -50.882
1519.4600, -50.862
1519.4800, -50.843
1519.5000, -50.814
1519.5200, -50.779
1519.5400, -50.768
1519.5600, -50.732
1519.5800, -50.696
1519.6000, -50.668
1519.6200, -50.650
1519.6400, -50.621
1519.6600, -50.587
1519.6800, -50.565
1519.7000, -50.543
1519.7200, -50.516
1519.7400, -50.485
1519.7600, -50.455
1519.7800, -50.428
1519.8000, -50.404
1519.8200, -50.374
1519.8400, -50.350
1519.8600, -50.304
1519.8800, -50.283
1519.9000, -50.249
1519.9200, -50.222
1519.9400, -50.199
1519.9600, -50.170
1519.9800, -50.140
1520.0000, -50.102
1520.0200, -50.080
1520.0400, -50.047
1520.0600, -50.020
1520.0800, -49.991
1520.1000, -49.963
1520.1200, -49.931
1520.1400, -49.900
1520.1600, -49.873
1520.1800, -49.842
1520.2000, -49.803
1520.2200, -49.778
1520.2400, -49.740
1520.2600, -49.712
1520.2800, -49.675
1520.3000, -49.640
1520.3200, -49.612
1520.3400, -49.574
1520.3600, -49.554
1520.3800, -49.512
1520.4000, -49.491
1520.4200, -49.464
1520.4400, -49.429
1520.4600, -49.394
1520.4800, -49.366
1520.5000, -49.332
1520.5200, -49.297
1520.5400, -49.259
1520.5600, -49.223
1520.5800, -49.192
1520.6000, -49.162
1520.6200, -49.123
