70BCSV 	
// AQ6370B OPTICAL SPECTRUM ANALYZER //                 
25
"CTRWL",1550.000000
"SPAN", 100.000000
"START WL",1500.000000
"STOP WL",1600.000000
"WLFREQ", 0
"REFL",-28.8
"LSCL", 5.0
"RESLN",0.100
"AVG",   1
"SMPLAUTO",      0
"SMPL",       5001
"SMPLINTVL",0.0200
"HIGH1"
"MEAS"
"LSUNT",0
"NMSKH","OFF"
"RESCOR",0
"RESPARM", 9050
"FREQPARM", 9050






"[TRACE DATA]"
1500.0000, -61.614
1500.0200, -61.628
1500.0400, -61.600
1500.0600, -61.608
1500.0800, -61.568
1500.1000, -61.616
1500.1200, -61.562
1500.1400, -61.566
1500.1600, -61.556
1500.1800, -61.606
1500.2000, -61.586
1500.2200, -61.579
1500.2400, -61.549
1500.2600, -61.547
1500.2800, -61.525
1500.3000, -61.526
1500.3200, -61.510
1500.3400, -61.529
1500.3600, -61.506
1500.3800, -61.514
1500.4000, -61.526
1500.4200, -61.520
1500.4400, -61.538
1500.4600, -61.462
1500.4800, -61.497
1500.5000, -61.473
1500.5200, -61.487
1500.5400, -61.472
1500.5600, -61.484
1500.5800, -61.450
1500.6000, -61.504
1500.6200, -61.436
1500.6400, -61.447
1500.6600, -61.446
1500.6800, -61.423
1500.7000, -61.430
1500.7200, -61.396
1500.7400, -61.413
1500.7600, -61.426
1500.7800, -61.415
1500.8000, -61.388
1500.8200, -61.386
1500.8400, -61.392
1500.8600, -61.382
1500.8800, -61.377
1500.9000, -61.400
1500.9200, -61.346
1500.9400, -61.367
1500.9600, -61.346
1500.9800, -61.350
1501.0000, -61.322
1501.0200, -61.329
1501.0400, -61.329
1501.0600, -61.299
1501.0800, -61.298
1501.1000, -61.324
1501.1200, -61.302
1501.1400, -61.257
1501.1600, -61.299
1501.1800, -61.278
1501.2000, -61.295
1501.2200, -61.276
1501.2400, -61.261
1501.2600, -61.264
1501.2800, -61.268
1501.3000, -61.271
1501.3200, -61.280
1501.3400, -61.251
1501.3600, -61.236
1501.3800, -61.247
1501.4000, -61.244
1501.4200, -61.209
1501.4400, -61.218
1501.4600, -61.216
1501.4800, -61.221
1501.5000, -61.201
1501.5200, -61.199
1501.5400, -61.208
1501.5600, -61.199
1501.5800, -61.162
1501.6000, -61.162
1501.6200, -61.157
1501.6400, -61.177
1501.6600, -61.153
1501.6800, -61.117
1501.7000, -61.171
1501.7200, -61.134
1501.7400, -61.146
1501.7600, -61.121
1501.7800, -61.120
1501.8000, -61.101
1501.8200, -61.115
1501.8400, -61.114
1501.8600, -61.141
1501.8800, -61.103
1501.9000, -61.112
1501.9200, -61.095
1501.9400, -61.073
1501.9600, -61.052
1501.9800, -61.050
1502.0000, -61.059
1502.0200, -61.042
1502.0400, -61.035
1502.0600, -61.035
1502.0800, -61.021
1502.1000, -61.040
1502.1200, -61.015
1502.1400, -60.984
1502.1600, -60.978
1502.1800, -61.010
1502.2000, -60.985
1502.2200, -60.986
1502.2400, -60.945
1502.2600, -60.953
1502.2800, -60.980
1502.3000, -60.975
1502.3200, -60.958
1502.3400, -60.933
1502.3600, -60.922
1502.3800, -60.930
1502.4000, -60.909
1502.4200, -60.940
1502.4400, -60.929
1502.4600, -60.906
1502.4800, -60.900
1502.5000, -60.911
1502.5200, -60.894
1502.5400, -60.867
1502.5600, -60.913
1502.5800, -60.873
1502.6000, -60.879
1502.6200, -60.887
1502.6400, -60.854
1502.6600, -60.855
1502.6800, -60.804
1502.7000, -60.809
1502.7200, -60.821
1502.7400, -60.813
1502.7600, -60.820
1502.7800, -60.806
1502.8000, -60.806
1502.8200, -60.780
1502.8400, -60.788
1502.8600, -60.760
1502.8800, -60.793
1502.9000, -60.737
1502.9200, -60.751
1502.9400, -60.739
1502.9600, -60.728
1502.9800, -60.722
1503.0000, -60.707
1503.0200, -60.716
1503.0400, -60.711
1503.0600, -60.710
1503.0800, -60.696
1503.1000, -60.675
1503.1200, -60.707
1503.1400, -60.685
1503.1600, -60.663
1503.1800, -60.637
1503.2000, -60.668
1503.2200, -60.606
1503.2400, -60.692
1503.2600, -60.615
1503.2800, -60.663
1503.3000, -60.622
1503.3200, -60.629
1503.3400, -60.624
1503.3600, -60.598
1503.3800, -60.603
1503.4000, -60.619
1503.4200, -60.599
1503.4400, -60.582
1503.4600, -60.601
1503.4800, -60.553
1503.5000, -60.552
1503.5200, -60.561
1503.5400, -60.543
1503.5600, -60.527
1503.5800, -60.540
1503.6000, -60.515
1503.6200, -60.538
1503.6400, -60.496
1503.6600, -60.506
1503.6800, -60.494
1503.7000, -60.503
1503.7200, -60.482
1503.7400, -60.461
1503.7600, -60.472
1503.7800, -60.483
1503.8000, -60.452
1503.8200, -60.471
1503.8400, -60.443
1503.8600, -60.454
1503.8800, -60.450
1503.9000, -60.421
1503.9200, -60.409
1503.9400, -60.411
1503.9600, -60.396
1503.9800, -60.407
1504.0000, -60.374
1504.0200, -60.383
1504.0400, -60.401
1504.0600, -60.340
1504.0800, -60.373
1504.1000, -60.350
1504.1200, -60.350
1504.1400, -60.320
1504.1600, -60.296
1504.1800, -60.347
1504.2000, -60.327
1504.2200, -60.322
1504.2400, -60.314
1504.2600, -60.305
1504.2800, -60.288
1504.3000, -60.266
1504.3200, -60.279
1504.3400, -60.241
1504.3600, -60.268
1504.3800, -60.258
1504.4000, -60.258
1504.4200, -60.246
1504.4400, -60.219
1504.4600, -60.214
1504.4800, -60.212
1504.5000, -60.215
1504.5200, -60.218
1504.5400, -60.180
1504.5600, -60.169
1504.5800, -60.164
1504.6000, -60.151
1504.6200, -60.144
1504.6400, -60.165
1504.6600, -60.140
1504.6800, -60.125
1504.7000, -60.138
1504.7200, -60.119
1504.7400, -60.123
1504.7600, -60.106
1504.7800, -60.116
1504.8000, -60.112
1504.8200, -60.095
1504.8400, -60.089
1504.8600, -60.055
1504.8800, -60.064
1504.9000, -60.056
1504.9200, -60.038
1504.9400, -60.021
1504.9600, -60.020
1504.9800, -60.008
1505.0000, -60.024
1505.0200, -60.019
1505.0400, -59.999
1505.0600, -59.979
1505.0800, -60.021
1505.1000, -59.949
1505.1200, -59.952
1505.1400, -59.979
1505.1600, -59.946
1505.1800, -59.962
1505.2000, -59.951
1505.2200, -59.937
1505.2400, -59.949
1505.2600, -59.922
1505.2800, -59.936
1505.3000, -59.907
1505.3200, -59.866
1505.3400, -59.892
1505.3600, -59.885
1505.3800, -59.901
1505.4000, -59.871
1505.4200, -59.825
1505.4400, -59.851
1505.4600, -59.853
1505.4800, -59.838
1505.5000, -59.834
1505.5200, -59.813
1505.5400, -59.798
1505.5600, -59.799
1505.5800, -59.780
1505.6000, -59.795
1505.6200, -59.773
1505.6400, -59.763
1505.6600, -59.761
1505.6800, -59.760
1505.7000, -59.746
1505.7200, -59.744
1505.7400, -59.731
1505.7600, -59.724
1505.7800, -59.711
1505.8000, -59.708
1505.8200, -59.708
1505.8400, -59.673
1505.8600, -59.669
1505.8800, -59.673
1505.9000, -59.668
1505.9200, -59.662
1505.9400, -59.647
1505.9600, -59.646
1505.9800, -59.616
1506.0000, -59.632
1506.0200, -59.604
1506.0400, -59.621
1506.0600, -59.589
1506.0800, -59.597
1506.1000, -59.579
1506.1200, -59.575
1506.1400, -59.572
1506.1600, -59.576
1506.1800, -59.589
1506.2000, -59.537
1506.2200, -59.551
1506.2400, -59.532
1506.2600, -59.525
1506.2800, -59.516
1506.3000, -59.517
1506.3200, -59.505
1506.3400, -59.489
1506.3600, -59.512
1506.3800, -59.463
1506.4000, -59.500
1506.4200, -59.469
1506.4400, -59.478
1506.4600, -59.451
1506.4800, -59.439
1506.5000, -59.431
1506.5200, -59.400
1506.5400, -59.398
1506.5600, -59.386
1506.5800, -59.410
1506.6000, -59.385
1506.6200, -59.395
1506.6400, -59.371
1506.6600, -59.389
1506.6800, -59.351
1506.7000, -59.373
1506.7200, -59.314
1506.7400, -59.350
1506.7600, -59.323
1506.7800, -59.269
1506.8000, -59.296
1506.8200, -59.301
1506.8400, -59.290
1506.8600, -59.285
1506.8800, -59.274
1506.9000, -59.276
1506.9200, -59.268
1506.9400, -59.247
1506.9600, -59.247
1506.9800, -59.226
1507.0000, -59.225
1507.0200, -59.202
1507.0400, -59.204
1507.0600, -59.201
1507.0800, -59.220
1507.1000, -59.191
1507.1200, -59.174
1507.1400, -59.172
1507.1600, -59.186
1507.1800, -59.148
1507.2000, -59.135
1507.2200, -59.134
1507.2400, -59.145
1507.2600, -59.127
1507.2800, -59.155
1507.3000, -59.118
1507.3200, -59.107
1507.3400, -59.103
1507.3600, -59.081
1507.3800, -59.076
1507.4000, -59.088
1507.4200, -59.063
1507.4400, -59.045
1507.4600, -59.029
1507.4800, -59.027
1507.5000, -59.011
1507.5200, -59.006
1507.5400, -59.011
1507.5600, -58.990
1507.5800, -59.003
1507.6000, -58.975
1507.6200, -58.968
1507.6400, -58.966
1507.6600, -58.959
1507.6800, -58.948
1507.7000, -58.934
1507.7200, -58.931
1507.7400, -58.924
1507.7600, -58.902
1507.7800, -58.904
1507.8000, -58.899
1507.8200, -58.895
1507.8400, -58.871
1507.8600, -58.889
1507.8800, -58.859
1507.9000, -58.825
1507.9200, -58.841
1507.9400, -58.836
1507.9600, -58.852
1507.9800, -58.822
1508.0000, -58.803
1508.0200, -58.799
1508.0400, -58.804
1508.0600, -58.809
1508.0800, -58.766
1508.1000, -58.780
1508.1200, -58.789
1508.1400, -58.760
1508.1600, -58.725
1508.1800, -58.756
1508.2000, -58.723
1508.2200, -58.720
1508.2400, -58.723
1508.2600, -58.712
1508.2800, -58.722
1508.3000, -58.704
1508.3200, -58.697
1508.3400, -58.684
1508.3600, -58.699
1508.3800, -58.662
1508.4000, -58.619
1508.4200, -58.648
1508.4400, -58.613
1508.4600, -58.632
1508.4800, -58.608
1508.5000, -58.610
1508.5200, -58.590
1508.5400, -58.599
1508.5600, -58.582
1508.5800, -58.579
1508.6000, -58.557
1508.6200, -58.546
1508.6400, -58.543
1508.6600, -58.541
1508.6800, -58.522
1508.7000, -58.518
1508.7200, -58.509
1508.7400, -58.490
1508.7600, -58.488
1508.7800, -58.503
1508.8000, -58.467
1508.8200, -58.468
1508.8400, -58.468
1508.8600, -58.447
1508.8800, -58.456
1508.9000, -58.424
1508.9200, -58.411
1508.9400, -58.414
1508.9600, -58.384
1508.9800, -58.416
1509.0000, -58.390
1509.0200, -58.382
1509.0400, -58.368
1509.0600, -58.367
1509.0800, -58.358
1509.1000, -58.365
1509.1200, -58.354
1509.1400, -58.330
1509.1600, -58.323
1509.1800, -58.304
1509.2000, -58.314
1509.2200, -58.291
1509.2400, -58.280
1509.2600, -58.283
1509.2800, -58.278
1509.3000, -58.269
1509.3200, -58.257
1509.3400, -58.238
1509.3600, -58.219
1509.3800, -58.201
1509.4000, -58.188
1509.4200, -58.212
1509.4400, -58.178
1509.4600, -58.177
1509.4800, -58.176
1509.5000, -58.152
1509.5200, -58.149
1509.5400, -58.132
1509.5600, -58.148
1509.5800, -58.128
1509.6000, -58.097
1509.6200, -58.110
1509.6400, -58.078
1509.6600, -58.081
1509.6800, -58.088
1509.7000, -58.049
1509.7200, -58.056
1509.7400, -58.054
1509.7600, -58.030
1509.7800, -58.027
1509.8000, -58.017
1509.8200, -58.002
1509.8400, -58.007
1509.8600, -57.990
1509.8800, -57.965
1509.9000, -57.975
1509.9200, -57.953
1509.9400, -57.978
1509.9600, -57.951
1509.9800, -57.953
1510.0000, -57.923
1510.0200, -57.928
1510.0400, -57.934
1510.0600, -57.927
1510.0800, -57.899
1510.1000, -57.888
1510.1200, -57.864
1510.1400, -57.869
1510.1600, -57.856
1510.1800, -57.852
1510.2000, -57.835
1510.2200, -57.831
1510.2400, -57.832
1510.2600, -57.823
1510.2800, -57.818
1510.3000, -57.780
1510.3200, -57.756
1510.3400, -57.752
1510.3600, -57.742
1510.3800, -57.737
1510.4000, -57.715
1510.4200, -57.700
1510.4400, -57.710
1510.4600, -57.678
1510.4800, -57.678
1510.5000, -57.667
1510.5200, -57.661
1510.5400, -57.650
1510.5600, -57.630
1510.5800, -57.633
1510.6000, -57.605
1510.6200, -57.602
1510.6400, -57.588
1510.6600, -57.587
1510.6800, -57.566
1510.7000, -57.566
1510.7200, -57.550
1510.7400, -57.528
1510.7600, -57.529
1510.7800, -57.513
1510.8000, -57.498
1510.8200, -57.493
1510.8400, -57.498
1510.8600, -57.474
1510.8800, -57.482
1510.9000, -57.451
1510.9200, -57.459
1510.9400, -57.443
1510.9600, -57.432
1510.9800, -57.427
1511.0000, -57.414
1511.0200, -57.397
1511.0400, -57.400
1511.0600, -57.386
1511.0800, -57.339
1511.1000, -57.351
1511.1200, -57.339
1511.1400, -57.330
1511.1600, -57.326
1511.1800, -57.312
1511.2000, -57.268
1511.2200, -57.281
1511.2400, -57.285
1511.2600, -57.244
1511.2800, -57.243
1511.3000, -57.220
1511.3200, -57.234
1511.3400, -57.195
1511.3600, -57.193
1511.3800, -57.174
1511.4000, -57.190
1511.4200, -57.165
1511.4400, -57.144
1511.4600, -57.157
1511.4800, -57.125
1511.5000, -57.123
1511.5200, -57.097
1511.5400, -57.109
1511.5600, -57.061
1511.5800, -57.081
1511.6000, -57.054
1511.6200, -57.045
1511.6400, -57.037
1511.6600, -57.026
1511.6800, -57.023
1511.7000, -56.995
1511.7200, -56.995
1511.7400, -56.998
1511.7600, -56.960
1511.7800, -56.951
1511.8000, -56.937
1511.8200, -56.933
1511.8400, -56.923
1511.8600, -56.926
1511.8800, -56.926
1511.9000, -56.897
1511.9200, -56.867
1511.9400, -56.876
1511.9600, -56.855
1511.9800, -56.843
1512.0000, -56.833
1512.0200, -56.826
1512.0400, -56.808
1512.0600, -56.801
1512.0800, -56.798
1512.1000, -56.775
1512.1200, -56.766
1512.1400, -56.761
1512.1600, -56.745
1512.1800, -56.740
1512.2000, -56.705
1512.2200, -56.701
1512.2400, -56.699
1512.2600, -56.684
1512.2800, -56.668
1512.3000, -56.644
1512.3200, -56.655
1512.3400, -56.641
1512.3600, -56.622
1512.3800, -56.624
1512.4000, -56.608
1512.4200, -56.602
1512.4400, -56.577
1512.4600, -56.573
1512.4800, -56.562
1512.5000, -56.549
1512.5200, -56.528
1512.5400, -56.526
1512.5600, -56.503
1512.5800, -56.491
1512.6000, -56.491
1512.6200, -56.478
1512.6400, -56.454
1512.6600, -56.456
1512.6800, -56.438
1512.7000, -56.431
1512.7200, -56.413
1512.7400, -56.399
1512.7600, -56.381
1512.7800, -56.376
1512.8000, -56.377
1512.8200, -56.372
1512.8400, -56.354
1512.8600, -56.332
1512.8800, -56.329
1512.9000, -56.319
1512.9200, -56.328
1512.9400, -56.309
1512.9600, -56.291
1512.9800, -56.276
1513.0000, -56.268
1513.0200, -56.251
1513.0400, -56.240
1513.0600, -56.222
1513.0800, -56.230
1513.1000, -56.190
1513.1200, -56.197
1513.1400, -56.193
1513.1600, -56.158
1513.1800, -56.140
1513.2000, -56.134
1513.2200, -56.118
1513.2400, -56.113
1513.2600, -56.097
1513.2800, -56.086
1513.3000, -56.075
1513.3200, -56.056
1513.3400, -56.058
1513.3600, -56.026
1513.3800, -56.021
1513.4000, -56.008
1513.4200, -55.998
1513.4400, -55.998
1513.4600, -55.957
1513.4800, -55.954
1513.5000, -55.938
1513.5200, -55.930
1513.5400, -55.937
1513.5600, -55.909
1513.5800, -55.900
1513.6000, -55.883
1513.6200, -55.863
1513.6400, -55.863
1513.6600, -55.849
1513.6800, -55.838
1513.7000, -55.813
1513.7200, -55.806
1513.7400, -55.807
1513.7600, -55.801
1513.7800, -55.773
1513.8000, -55.768
1513.8200, -55.754
1513.8400, -55.757
1513.8600, -55.735
1513.8800, -55.722
1513.9000, -55.702
1513.9200, -55.689
1513.9400, -55.683
1513.9600, -55.677
1513.9800, -55.646
1514.0000, -55.640
1514.0200, -55.629
1514.0400, -55.611
1514.0600, -55.592
1514.0800, -55.604
1514.1000, -55.593
1514.1200, -55.537
1514.1400, -55.547
1514.1600, -55.518
1514.1800, -55.522
1514.2000, -55.499
1514.2200, -55.479
1514.2400, -55.482
1514.2600, -55.469
1514.2800, -55.446
1514.3000, -55.425
1514.3200, -55.417
1514.3400, -55.408
1514.3600, -55.391
1514.3800, -55.379
1514.4000, -55.369
1514.4200, -55.349
1514.4400, -55.329
1514.4600, -55.318
1514.4800, -55.313
1514.5000, -55.308
1514.5200, -55.292
1514.5400, -55.267
1514.5600, -55.249
1514.5800, -55.241
1514.6000, -55.244
1514.6200, -55.213
1514.6400, -55.206
1514.6600, -55.189
1514.6800, -55.182
1514.7000, -55.185
1514.7200, -55.166
1514.7400, -55.146
1514.7600, -55.135
1514.7800, -55.129
1514.8000, -55.112
1514.8200, -55.086
1514.8400, -55.079
1514.8600, -55.076
1514.8800, -55.074
1514.9000, -55.051
1514.9200, -55.036
1514.9400, -55.026
1514.9600, -54.986
1514.9800, -54.991
1515.0000, -54.985
1515.0200, -54.979
1515.0400, -54.955
1515.0600, -54.916
1515.0800, -54.898
1515.1000, -54.885
1515.1200, -54.866
1515.1400, -54.864
1515.1600, -54.848
1515.1800, -54.830
1515.2000, -54.827
1515.2200, -54.798
1515.2400, -54.780
1515.2600, -54.768
1515.2800, -54.766
1515.3000, -54.745
1515.3200, -54.733
1515.3400, -54.715
1515.3600, -54.691
1515.3800, -54.683
1515.4000, -54.660
1515.4200, -54.658
1515.4400, -54.654
1515.4600, -54.621
1515.4800, -54.606
1515.5000, -54.591
1515.5200, -54.580
1515.5400, -54.576
1515.5600, -54.540
1515.5800, -54.538
1515.6000, -54.522
1515.6200, -54.499
1515.6400, -54.509
1515.6600, -54.492
1515.6800, -54.481
1515.7000, -54.475
1515.7200, -54.454
1515.7400, -54.429
1515.7600, -54.425
1515.7800, -54.403
1515.8000, -54.391
1515.8200, -54.370
1515.8400, -54.365
1515.8600, -54.344
1515.8800, -54.340
1515.9000, -54.308
1515.9200, -54.302
1515.9400, -54.283
1515.9600, -54.285
1515.9800, -54.268
1516.0000, -54.230
1516.0200, -54.208
1516.0400, -54.198
1516.0600, -54.166
1516.0800, -54.158
1516.1000, -54.137
1516.1200, -54.122
1516.1400, -54.115
1516.1600, -54.098
1516.1800, -54.089
1516.2000, -54.064
1516.2200, -54.053
1516.2400, -54.027
1516.2600, -54.020
1516.2800, -54.011
1516.3000, -53.990
1516.3200, -53.964
1516.3400, -53.953
1516.3600, -53.925
1516.3800, -53.913
1516.4000, -53.903
1516.4200, -53.894
1516.4400, -53.856
1516.4600, -53.852
1516.4800, -53.830
1516.5000, -53.814
1516.5200, -53.796
1516.5400, -53.773
1516.5600, -53.749
1516.5800, -53.768
1516.6000, -53.747
1516.6200, -53.739
1516.6400, -53.710
1516.6600, -53.695
1516.6800, -53.680
1516.7000, -53.662
1516.7200, -53.635
1516.7400, -53.628
1516.7600, -53.611
1516.7800, -53.592
1516.8000, -53.575
1516.8200, -53.565
1516.8400, -53.556
1516.8600, -53.530
1516.8800, -53.510
1516.9000, -53.505
1516.9200, -53.497
1516.9400, -53.462
1516.9600, -53.408
1516.9800, -53.401
1517.0000, -53.370
1517.0200, -53.361
1517.0400, -53.340
1517.0600, -53.324
1517.0800, -53.308
1517.1000, -53.304
1517.1200, -53.275
1517.1400, -53.255
1517.1600, -53.239
1517.1800, -53.218
1517.2000, -53.208
1517.2200, -53.183
1517.2400, -53.161
1517.2600, -53.142
1517.2800, -53.118
1517.3000, -53.098
1517.3200, -53.080
1517.3400, -53.081
1517.3600, -53.046
1517.3800, -53.019
1517.4000, -53.027
1517.4200, -52.994
1517.4400, -52.969
1517.4600, -52.942
1517.4800, -52.939
1517.5000, -52.928
1517.5200, -52.919
1517.5400, -52.892
1517.5600, -52.875
1517.5800, -52.865
1517.6000, -52.850
1517.6200, -52.825
1517.6400, -52.799
1517.6600, -52.782
1517.6800, -52.752
1517.7000, -52.730
1517.7200, -52.709
1517.7400, -52.692
1517.7600, -52.670
1517.7800, -52.652
1517.8000, -52.621
1517.8200, -52.618
1517.8400, -52.614
1517.8600, -52.593
1517.8800, -52.576
1517.9000, -52.518
1517.9200, -52.499
1517.9400, -52.470
1517.9600, -52.451
1517.9800, -52.435
1518.0000, -52.415
1518.0200, -52.386
1518.0400, -52.386
1518.0600, -52.347
1518.0800, -52.325
1518.1000, -52.293
1518.1200, -52.294
1518.1400, -52.264
1518.1600, -52.251
1518.1800, -52.224
1518.2000, -52.194
1518.2200, -52.163
1518.2400, -52.149
1518.2600, -52.125
1518.2800, -52.127
1518.3000, -52.101
1518.3200, -52.072
1518.3400, -52.047
1518.3600, -52.031
1518.3800, -52.012
1518.4000, -51.980
1518.4200, -51.967
1518.4400, -51.971
1518.4600, -51.954
1518.4800, -51.907
1518.5000, -51.892
1518.5200, -51.861
1518.5400, -51.844
1518.5600, -51.826
1518.5800, -51.785
1518.6000, -51.767
1518.6200, -51.730
1518.6400, -51.726
1518.6600, -51.706
1518.6800, -51.688
1518.7000, -51.667
1518.7200, -51.635
1518.7400, -51.601
1518.7600, -51.587
1518.7800, -51.570
1518.8000, -51.564
1518.8200, -51.542
1518.8400, -51.470
1518.8600, -51.443
1518.8800, -51.424
1518.9000, -51.394
1518.9200, -51.383
1518.9400, -51.355
1518.9600, -51.328
1518.9800, -51.324
1519.0000, -51.288
1519.0200, -51.269
1519.0400, -51.243
1519.0600, -51.234
1519.0800, -51.206
1519.1000, -51.154
1519.1200, -51.146
1519.1400, -51.101
1519.1600, -51.076
1519.1800, -51.060
1519.2000, -51.035
1519.2200, -51.019
1519.2400, -50.978
1519.2600, -50.950
1519.2800, -50.926
1519.3000, -50.900
1519.3200, -50.879
1519.3400, -50.835
1519.3600, -50.818
1519.3800, -50.776
1519.4000, -50.751
1519.4200, -50.747
1519.4400, -50.739
1519.4600, -50.705
1519.4800, -50.679
1519.5000, -50.663
1519.5200, -50.626
1519.5400, -50.605
1519.5600, -50.575
1519.5800, -50.536
1519.6000, -50.513
1519.6200, -50.486
1519.6400, -50.453
1519.6600, -50.442
1519.6800, -50.410
1519.7000, -50.374
1519.7200, -50.357
1519.7400, -50.315
1519.7600, -50.288
1519.7800, -50.251
1519.8000, -50.204
1519.8200, -50.186
1519.8400, -50.145
1519.8600, -50.131
1519.8800, -50.095
1519.9000, -50.067
1519.9200, -50.052
1519.9400, -50.006
1519.9600, -49.991
1519.9800, -49.953
1520.0000, -49.945
1520.0200, -49.896
1520.0400, -49.869
1520.0600, -49.851
1520.0800, -49.799
1520.1000, -49.758
1520.1200, -49.734
1520.1400, -49.708
1520.1600, -49.683
1520.1800, -49.657
1520.2000, -49.621
1520.2200, -49.586
1520.2400, -49.559
1520.2600, -49.530
1520.2800, -49.495
1520.3000, -49.473
1520.3200, -49.448
1520.3400, -49.382
1520.3600, -49.379
1520.3800, -49.363
1520.4000, -49.328
1520.4200, -49.293
1520.4400, -49.274
1520.4600, -49.221
1520.4800, -49.175
1520.5000, -49.146
1520.5200, -49.132
1520.5400, -49.105
1520.5600, -49.070
1520.5800, -49.039
1520.6000, -48.985
1520.6200, -48.965
