70BCSV 	
// AQ6370B OPTICAL SPECTRUM ANALYZER //                 
25
"CTRWL",1550.000000
"SPAN", 100.000000
"START WL",1500.000000
"STOP WL",1600.000000
"WLFREQ", 0
"REFL",-28.8
"LSCL", 5.0
"RESLN",0.100
"AVG",   1
"SMPLAUTO",      0
"SMPL",       5001
"SMPLINTVL",0.0200
"HIGH1"
"MEAS"
"LSUNT",0
"NMSKH","OFF"
"RESCOR",0
"RESPARM", 9050
"FREQPARM", 9050






"[TRACE DATA]"
1500.0000, -61.632
1500.0200, -61.594
1500.0400, -61.584
1500.0600, -61.600
1500.0800, -61.580
1500.1000, -61.602
1500.1200, -61.590
1500.1400, -61.585
1500.1600, -61.537
1500.1800, -61.539
1500.2000, -61.554
1500.2200, -61.548
1500.2400, -61.545
1500.2600, -61.567
1500.2800, -61.531
1500.3000, -61.537
1500.3200, -61.540
1500.3400, -61.538
1500.3600, -61.523
1500.3800, -61.516
1500.4000, -61.526
1500.4200, -61.508
1500.4400, -61.496
1500.4600, -61.499
1500.4800, -61.504
1500.5000, -61.457
1500.5200, -61.480
1500.5400, -61.465
1500.5600, -61.438
1500.5800, -61.476
1500.6000, -61.477
1500.6200, -61.457
1500.6400, -61.400
1500.6600, -61.459
1500.6800, -61.403
1500.7000, -61.428
1500.7200, -61.403
1500.7400, -61.385
1500.7600, -61.412
1500.7800, -61.388
1500.8000, -61.407
1500.8200, -61.406
1500.8400, -61.331
1500.8600, -61.373
1500.8800, -61.366
1500.9000, -61.387
1500.9200, -61.336
1500.9400, -61.367
1500.9600, -61.330
1500.9800, -61.316
1501.0000, -61.322
1501.0200, -61.310
1501.0400, -61.305
1501.0600, -61.330
1501.0800, -61.303
1501.1000, -61.297
1501.1200, -61.283
1501.1400, -61.282
1501.1600, -61.272
1501.1800, -61.287
1501.2000, -61.286
1501.2200, -61.269
1501.2400, -61.291
1501.2600, -61.275
1501.2800, -61.274
1501.3000, -61.247
1501.3200, -61.253
1501.3400, -61.215
1501.3600, -61.246
1501.3800, -61.216
1501.4000, -61.225
1501.4200, -61.234
1501.4400, -61.214
1501.4600, -61.193
1501.4800, -61.190
1501.5000, -61.178
1501.5200, -61.214
1501.5400, -61.188
1501.5600, -61.187
1501.5800, -61.167
1501.6000, -61.147
1501.6200, -61.163
1501.6400, -61.175
1501.6600, -61.158
1501.6800, -61.158
1501.7000, -61.126
1501.7200, -61.101
1501.7400, -61.103
1501.7600, -61.101
1501.7800, -61.117
1501.8000, -61.130
1501.8200, -61.117
1501.8400, -61.087
1501.8600, -61.094
1501.8800, -61.117
1501.9000, -61.086
1501.9200, -61.060
1501.9400, -61.083
1501.9600, -61.059
1501.9800, -61.044
1502.0000, -61.062
1502.0200, -61.079
1502.0400, -61.021
1502.0600, -61.026
1502.0800, -61.029
1502.1000, -60.992
1502.1200, -60.988
1502.1400, -60.987
1502.1600, -61.011
1502.1800, -61.003
1502.2000, -61.023
1502.2200, -60.964
1502.2400, -60.953
1502.2600, -60.965
1502.2800, -60.958
1502.3000, -60.959
1502.3200, -60.963
1502.3400, -60.936
1502.3600, -60.924
1502.3800, -60.949
1502.4000, -60.924
1502.4200, -60.903
1502.4400, -60.904
1502.4600, -60.924
1502.4800, -60.893
1502.5000, -60.907
1502.5200, -60.905
1502.5400, -60.863
1502.5600, -60.877
1502.5800, -60.863
1502.6000, -60.865
1502.6200, -60.815
1502.6400, -60.844
1502.6600, -60.822
1502.6800, -60.809
1502.7000, -60.809
1502.7200, -60.827
1502.7400, -60.828
1502.7600, -60.794
1502.7800, -60.794
1502.8000, -60.807
1502.8200, -60.801
1502.8400, -60.772
1502.8600, -60.736
1502.8800, -60.744
1502.9000, -60.763
1502.9200, -60.734
1502.9400, -60.718
1502.9600, -60.742
1502.9800, -60.729
1503.0000, -60.720
1503.0200, -60.706
1503.0400, -60.709
1503.0600, -60.702
1503.0800, -60.706
1503.1000, -60.681
1503.1200, -60.694
1503.1400, -60.672
1503.1600, -60.671
1503.1800, -60.677
1503.2000, -60.643
1503.2200, -60.668
1503.2400, -60.648
1503.2600, -60.664
1503.2800, -60.608
1503.3000, -60.615
1503.3200, -60.621
1503.3400, -60.585
1503.3600, -60.611
1503.3800, -60.592
1503.4000, -60.583
1503.4200, -60.589
1503.4400, -60.585
1503.4600, -60.570
1503.4800, -60.551
1503.5000, -60.580
1503.5200, -60.533
1503.5400, -60.529
1503.5600, -60.505
1503.5800, -60.543
1503.6000, -60.525
1503.6200, -60.536
1503.6400, -60.500
1503.6600, -60.494
1503.6800, -60.484
1503.7000, -60.486
1503.7200, -60.465
1503.7400, -60.464
1503.7600, -60.456
1503.7800, -60.447
1503.8000, -60.440
1503.8200, -60.447
1503.8400, -60.425
1503.8600, -60.431
1503.8800, -60.412
1503.9000, -60.408
1503.9200, -60.404
1503.9400, -60.401
1503.9600, -60.388
1503.9800, -60.393
1504.0000, -60.376
1504.0200, -60.394
1504.0400, -60.369
1504.0600, -60.360
1504.0800, -60.377
1504.1000, -60.339
1504.1200, -60.351
1504.1400, -60.310
1504.1600, -60.330
1504.1800, -60.328
1504.2000, -60.299
1504.2200, -60.301
1504.2400, -60.277
1504.2600, -60.301
1504.2800, -60.276
1504.3000, -60.279
1504.3200, -60.241
1504.3400, -60.270
1504.3600, -60.243
1504.3800, -60.254
1504.4000, -60.259
1504.4200, -60.236
1504.4400, -60.266
1504.4600, -60.211
1504.4800, -60.174
1504.5000, -60.215
1504.5200, -60.194
1504.5400, -60.173
1504.5600, -60.175
1504.5800, -60.138
1504.6000, -60.154
1504.6200, -60.133
1504.6400, -60.144
1504.6600, -60.142
1504.6800, -60.137
1504.7000, -60.118
1504.7200, -60.095
1504.7400, -60.123
1504.7600, -60.094
1504.7800, -60.089
1504.8000, -60.100
1504.8200, -60.089
1504.8400, -60.078
1504.8600, -60.049
1504.8800, -60.029
1504.9000, -60.057
1504.9200, -60.011
1504.9400, -60.023
1504.9600, -60.003
1504.9800, -60.002
1505.0000, -59.999
1505.0200, -59.993
1505.0400, -59.979
1505.0600, -59.995
1505.0800, -59.988
1505.1000, -59.960
1505.1200, -59.966
1505.1400, -59.966
1505.1600, -59.954
1505.1800, -59.924
1505.2000, -59.901
1505.2200, -59.926
1505.2400, -59.919
1505.2600, -59.948
1505.2800, -59.885
1505.3000, -59.906
1505.3200, -59.866
1505.3400, -59.868
1505.3600, -59.900
1505.3800, -59.886
1505.4000, -59.868
1505.4200, -59.830
1505.4400, -59.862
1505.4600, -59.836
1505.4800, -59.816
1505.5000, -59.803
1505.5200, -59.811
1505.5400, -59.775
1505.5600, -59.775
1505.5800, -59.777
1505.6000, -59.764
1505.6200, -59.769
1505.6400, -59.737
1505.6600, -59.755
1505.6800, -59.729
1505.7000, -59.750
1505.7200, -59.729
1505.7400, -59.713
1505.7600, -59.696
1505.7800, -59.694
1505.8000, -59.688
1505.8200, -59.665
1505.8400, -59.689
1505.8600, -59.675
1505.8800, -59.671
1505.9000, -59.656
1505.9200, -59.658
1505.9400, -59.630
1505.9600, -59.639
1505.9800, -59.616
1506.0000, -59.620
1506.0200, -59.627
1506.0400, -59.614
1506.0600, -59.586
1506.0800, -59.601
1506.1000, -59.586
1506.1200, -59.566
1506.1400, -59.579
1506.1600, -59.528
1506.1800, -59.525
1506.2000, -59.536
1506.2200, -59.534
1506.2400, -59.526
1506.2600, -59.522
1506.2800, -59.512
1506.3000, -59.480
1506.3200, -59.520
1506.3400, -59.491
1506.3600, -59.464
1506.3800, -59.492
1506.4000, -59.452
1506.4200, -59.431
1506.4400, -59.446
1506.4600, -59.434
1506.4800, -59.429
1506.5000, -59.416
1506.5200, -59.389
1506.5400, -59.395
1506.5600, -59.414
1506.5800, -59.383
1506.6000, -59.373
1506.6200, -59.371
1506.6400, -59.363
1506.6600, -59.355
1506.6800, -59.346
1506.7000, -59.343
1506.7200, -59.322
1506.7400, -59.315
1506.7600, -59.306
1506.7800, -59.302
1506.8000, -59.293
1506.8200, -59.302
1506.8400, -59.283
1506.8600, -59.266
1506.8800, -59.261
1506.9000, -59.273
1506.9200, -59.261
1506.9400, -59.208
1506.9600, -59.233
1506.9800, -59.232
1507.0000, -59.222
1507.0200, -59.227
1507.0400, -59.210
1507.0600, -59.199
1507.0800, -59.186
1507.1000, -59.192
1507.1200, -59.161
1507.1400, -59.158
1507.1600, -59.157
1507.1800, -59.153
1507.2000, -59.141
1507.2200, -59.145
1507.2400, -59.110
1507.2600, -59.132
1507.2800, -59.122
1507.3000, -59.104
1507.3200, -59.113
1507.3400, -59.095
1507.3600, -59.088
1507.3800, -59.078
1507.4000, -59.061
1507.4200, -59.030
1507.4400, -59.032
1507.4600, -59.014
1507.4800, -59.006
1507.5000, -58.996
1507.5200, -59.010
1507.5400, -58.991
1507.5600, -58.990
1507.5800, -58.982
1507.6000, -58.956
1507.6200, -58.969
1507.6400, -58.946
1507.6600, -58.947
1507.6800, -58.933
1507.7000, -58.914
1507.7200, -58.907
1507.7400, -58.887
1507.7600, -58.905
1507.7800, -58.894
1507.8000, -58.897
1507.8200, -58.868
1507.8400, -58.866
1507.8600, -58.851
1507.8800, -58.844
1507.9000, -58.833
1507.9200, -58.848
1507.9400, -58.833
1507.9600, -58.814
1507.9800, -58.823
1508.0000, -58.796
1508.0200, -58.804
1508.0400, -58.794
1508.0600, -58.783
1508.0800, -58.771
1508.1000, -58.770
1508.1200, -58.762
1508.1400, -58.745
1508.1600, -58.737
1508.1800, -58.736
1508.2000, -58.720
1508.2200, -58.715
1508.2400, -58.712
1508.2600, -58.718
1508.2800, -58.708
1508.3000, -58.712
1508.3200, -58.711
1508.3400, -58.672
1508.3600, -58.656
1508.3800, -58.638
1508.4000, -58.632
1508.4200, -58.609
1508.4400, -58.619
1508.4600, -58.591
1508.4800, -58.597
1508.5000, -58.608
1508.5200, -58.591
1508.5400, -58.575
1508.5600, -58.571
1508.5800, -58.561
1508.6000, -58.534
1508.6200, -58.534
1508.6400, -58.535
1508.6600, -58.510
1508.6800, -58.520
1508.7000, -58.492
1508.7200, -58.496
1508.7400, -58.485
1508.7600, -58.487
1508.7800, -58.490
1508.8000, -58.452
1508.8200, -58.450
1508.8400, -58.453
1508.8600, -58.451
1508.8800, -58.411
1508.9000, -58.434
1508.9200, -58.414
1508.9400, -58.417
1508.9600, -58.402
1508.9800, -58.385
1509.0000, -58.397
1509.0200, -58.369
1509.0400, -58.352
1509.0600, -58.354
1509.0800, -58.361
1509.1000, -58.339
1509.1200, -58.341
1509.1400, -58.335
1509.1600, -58.304
1509.1800, -58.300
1509.2000, -58.298
1509.2200, -58.290
1509.2400, -58.305
1509.2600, -58.277
1509.2800, -58.267
1509.3000, -58.237
1509.3200, -58.239
1509.3400, -58.218
1509.3600, -58.200
1509.3800, -58.181
1509.4000, -58.174
1509.4200, -58.187
1509.4400, -58.161
1509.4600, -58.178
1509.4800, -58.158
1509.5000, -58.153
1509.5200, -58.133
1509.5400, -58.124
1509.5600, -58.116
1509.5800, -58.103
1509.6000, -58.106
1509.6200, -58.094
1509.6400, -58.062
1509.6600, -58.066
1509.6800, -58.076
1509.7000, -58.049
1509.7200, -58.033
1509.7400, -58.030
1509.7600, -58.026
1509.7800, -58.039
1509.8000, -57.995
1509.8200, -58.018
1509.8400, -57.998
1509.8600, -57.987
1509.8800, -57.990
1509.9000, -57.973
1509.9200, -57.965
1509.9400, -57.963
1509.9600, -57.958
1509.9800, -57.923
1510.0000, -57.919
1510.0200, -57.913
1510.0400, -57.904
1510.0600, -57.892
1510.0800, -57.896
1510.1000, -57.874
1510.1200, -57.864
1510.1400, -57.840
1510.1600, -57.867
1510.1800, -57.850
1510.2000, -57.843
1510.2200, -57.837
1510.2400, -57.805
1510.2600, -57.794
1510.2800, -57.791
1510.3000, -57.763
1510.3200, -57.738
1510.3400, -57.736
1510.3600, -57.721
1510.3800, -57.730
1510.4000, -57.710
1510.4200, -57.696
1510.4400, -57.687
1510.4600, -57.682
1510.4800, -57.665
1510.5000, -57.655
1510.5200, -57.637
1510.5400, -57.646
1510.5600, -57.624
1510.5800, -57.613
1510.6000, -57.577
1510.6200, -57.582
1510.6400, -57.578
1510.6600, -57.577
1510.6800, -57.566
1510.7000, -57.540
1510.7200, -57.548
1510.7400, -57.525
1510.7600, -57.518
1510.7800, -57.497
1510.8000, -57.504
1510.8200, -57.499
1510.8400, -57.485
1510.8600, -57.482
1510.8800, -57.456
1510.9000, -57.449
1510.9200, -57.444
1510.9400, -57.409
1510.9600, -57.406
1510.9800, -57.413
1511.0000, -57.392
1511.0200, -57.374
1511.0400, -57.390
1511.0600, -57.359
1511.0800, -57.328
1511.1000, -57.347
1511.1200, -57.338
1511.1400, -57.336
1511.1600, -57.321
1511.1800, -57.307
1511.2000, -57.285
1511.2200, -57.279
1511.2400, -57.262
1511.2600, -57.239
1511.2800, -57.229
1511.3000, -57.212
1511.3200, -57.208
1511.3400, -57.191
1511.3600, -57.194
1511.3800, -57.174
1511.4000, -57.167
1511.4200, -57.146
1511.4400, -57.147
1511.4600, -57.126
1511.4800, -57.116
1511.5000, -57.123
1511.5200, -57.092
1511.5400, -57.061
1511.5600, -57.059
1511.5800, -57.062
1511.6000, -57.049
1511.6200, -57.038
1511.6400, -57.025
1511.6600, -57.009
1511.6800, -57.007
1511.7000, -57.010
1511.7200, -56.974
1511.7400, -56.959
1511.7600, -56.957
1511.7800, -56.949
1511.8000, -56.943
1511.8200, -56.928
1511.8400, -56.915
1511.8600, -56.918
1511.8800, -56.898
1511.9000, -56.868
1511.9200, -56.870
1511.9400, -56.868
1511.9600, -56.847
1511.9800, -56.835
1512.0000, -56.829
1512.0200, -56.798
1512.0400, -56.807
1512.0600, -56.803
1512.0800, -56.802
1512.1000, -56.779
1512.1200, -56.771
1512.1400, -56.761
1512.1600, -56.734
1512.1800, -56.733
1512.2000, -56.694
1512.2200, -56.698
1512.2400, -56.670
1512.2600, -56.684
1512.2800, -56.657
1512.3000, -56.651
1512.3200, -56.637
1512.3400, -56.613
1512.3600, -56.607
1512.3800, -56.599
1512.4000, -56.600
1512.4200, -56.568
1512.4400, -56.574
1512.4600, -56.564
1512.4800, -56.542
1512.5000, -56.521
1512.5200, -56.520
1512.5400, -56.498
1512.5600, -56.499
1512.5800, -56.496
1512.6000, -56.484
1512.6200, -56.468
1512.6400, -56.440
1512.6600, -56.435
1512.6800, -56.417
1512.7000, -56.414
1512.7200, -56.420
1512.7400, -56.406
1512.7600, -56.390
1512.7800, -56.382
1512.8000, -56.374
1512.8200, -56.352
1512.8400, -56.340
1512.8600, -56.325
1512.8800, -56.337
1512.9000, -56.309
1512.9200, -56.298
1512.9400, -56.295
1512.9600, -56.266
1512.9800, -56.255
1513.0000, -56.258
1513.0200, -56.244
1513.0400, -56.234
1513.0600, -56.233
1513.0800, -56.216
1513.1000, -56.202
1513.1200, -56.158
1513.1400, -56.180
1513.1600, -56.138
1513.1800, -56.132
1513.2000, -56.114
1513.2200, -56.103
1513.2400, -56.096
1513.2600, -56.095
1513.2800, -56.077
1513.3000, -56.048
1513.3200, -56.050
1513.3400, -56.023
1513.3600, -56.017
1513.3800, -56.017
1513.4000, -55.997
1513.4200, -55.991
1513.4400, -55.971
1513.4600, -55.944
1513.4800, -55.937
1513.5000, -55.943
1513.5200, -55.934
1513.5400, -55.908
1513.5600, -55.888
1513.5800, -55.894
1513.6000, -55.859
1513.6200, -55.848
1513.6400, -55.835
1513.6600, -55.826
1513.6800, -55.816
1513.7000, -55.817
1513.7200, -55.818
1513.7400, -55.797
1513.7600, -55.785
1513.7800, -55.771
1513.8000, -55.742
1513.8200, -55.749
1513.8400, -55.738
1513.8600, -55.719
1513.8800, -55.703
1513.9000, -55.697
1513.9200, -55.666
1513.9400, -55.668
1513.9600, -55.662
1513.9800, -55.653
1514.0000, -55.641
1514.0200, -55.634
1514.0400, -55.610
1514.0600, -55.586
1514.0800, -55.579
1514.1000, -55.569
1514.1200, -55.538
1514.1400, -55.528
1514.1600, -55.505
1514.1800, -55.489
1514.2000, -55.494
1514.2200, -55.478
1514.2400, -55.463
1514.2600, -55.450
1514.2800, -55.431
1514.3000, -55.419
1514.3200, -55.399
1514.3400, -55.400
1514.3600, -55.388
1514.3800, -55.363
1514.4000, -55.352
1514.4200, -55.334
1514.4400, -55.327
1514.4600, -55.325
1514.4800, -55.302
1514.5000, -55.289
1514.5200, -55.266
1514.5400, -55.260
1514.5600, -55.245
1514.5800, -55.221
1514.6000, -55.215
1514.6200, -55.229
1514.6400, -55.211
1514.6600, -55.202
1514.6800, -55.178
1514.7000, -55.177
1514.7200, -55.149
1514.7400, -55.124
1514.7600, -55.103
1514.7800, -55.119
1514.8000, -55.096
1514.8200, -55.093
1514.8400, -55.072
1514.8600, -55.054
1514.8800, -55.044
1514.9000, -55.036
1514.9200, -55.038
1514.9400, -55.013
1514.9600, -55.000
1514.9800, -55.001
1515.0000, -54.973
1515.0200, -54.939
1515.0400, -54.926
1515.0600, -54.902
1515.0800, -54.892
1515.1000, -54.860
1515.1200, -54.855
1515.1400, -54.838
1515.1600, -54.838
1515.1800, -54.826
1515.2000, -54.804
1515.2200, -54.788
1515.2400, -54.766
1515.2600, -54.754
1515.2800, -54.740
1515.3000, -54.729
1515.3200, -54.706
1515.3400, -54.694
1515.3600, -54.668
1515.3800, -54.675
1515.4000, -54.664
1515.4200, -54.650
1515.4400, -54.630
1515.4600, -54.605
1515.4800, -54.596
1515.5000, -54.585
1515.5200, -54.554
1515.5400, -54.544
1515.5600, -54.544
1515.5800, -54.543
1515.6000, -54.519
1515.6200, -54.515
1515.6400, -54.486
1515.6600, -54.479
1515.6800, -54.468
1515.7000, -54.425
1515.7200, -54.443
1515.7400, -54.412
1515.7600, -54.397
1515.7800, -54.393
1515.8000, -54.382
1515.8200, -54.349
1515.8400, -54.353
1515.8600, -54.348
1515.8800, -54.337
1515.9000, -54.320
1515.9200, -54.305
1515.9400, -54.289
1515.9600, -54.258
1515.9800, -54.240
1516.0000, -54.219
1516.0200, -54.192
1516.0400, -54.164
1516.0600, -54.157
1516.0800, -54.141
1516.1000, -54.138
1516.1200, -54.121
1516.1400, -54.087
1516.1600, -54.079
1516.1800, -54.051
1516.2000, -54.050
1516.2200, -54.019
1516.2400, -54.018
1516.2600, -54.010
1516.2800, -53.984
1516.3000, -53.958
1516.3200, -53.946
1516.3400, -53.952
1516.3600, -53.918
1516.3800, -53.892
1516.4000, -53.882
1516.4200, -53.866
1516.4400, -53.847
1516.4600, -53.821
1516.4800, -53.808
1516.5000, -53.789
1516.5200, -53.771
1516.5400, -53.771
1516.5600, -53.768
1516.5800, -53.746
1516.6000, -53.737
1516.6200, -53.732
1516.6400, -53.679
1516.6600, -53.666
1516.6800, -53.664
1516.7000, -53.647
1516.7200, -53.631
1516.7400, -53.619
1516.7600, -53.585
1516.7800, -53.575
1516.8000, -53.571
1516.8200, -53.566
1516.8400, -53.554
1516.8600, -53.535
1516.8800, -53.508
1516.9000, -53.484
1516.9200, -53.451
1516.9400, -53.428
1516.9600, -53.400
1516.9800, -53.385
1517.0000, -53.351
1517.0200, -53.342
1517.0400, -53.339
1517.0600, -53.324
1517.0800, -53.289
1517.1000, -53.271
1517.1200, -53.248
1517.1400, -53.234
1517.1600, -53.219
1517.1800, -53.196
1517.2000, -53.187
1517.2200, -53.153
1517.2400, -53.132
1517.2600, -53.116
1517.2800, -53.100
1517.3000, -53.097
1517.3200, -53.069
1517.3400, -53.047
1517.3600, -53.029
1517.3800, -53.009
1517.4000, -52.994
1517.4200, -52.965
1517.4400, -52.950
1517.4600, -52.922
1517.4800, -52.914
1517.5000, -52.925
1517.5200, -52.895
1517.5400, -52.881
1517.5600, -52.863
1517.5800, -52.837
1517.6000, -52.819
1517.6200, -52.813
1517.6400, -52.778
1517.6600, -52.755
1517.6800, -52.752
1517.7000, -52.728
1517.7200, -52.677
1517.7400, -52.686
1517.7600, -52.680
1517.7800, -52.660
1517.8000, -52.642
1517.8200, -52.626
1517.8400, -52.599
1517.8600, -52.547
1517.8800, -52.534
1517.9000, -52.488
1517.9200, -52.491
1517.9400, -52.443
1517.9600, -52.429
1517.9800, -52.413
1518.0000, -52.405
1518.0200, -52.375
1518.0400, -52.343
1518.0600, -52.329
1518.0800, -52.304
1518.1000, -52.285
1518.1200, -52.267
1518.1400, -52.252
1518.1600, -52.227
1518.1800, -52.200
1518.2000, -52.167
1518.2200, -52.149
1518.2400, -52.150
1518.2600, -52.115
1518.2800, -52.089
1518.3000, -52.060
1518.3200, -52.041
1518.3400, -52.025
1518.3600, -51.999
1518.3800, -51.976
1518.4000, -51.962
1518.4200, -51.969
1518.4400, -51.935
1518.4600, -51.911
1518.4800, -51.882
1518.5000, -51.880
1518.5200, -51.847
1518.5400, -51.794
1518.5600, -51.807
1518.5800, -51.785
1518.6000, -51.763
1518.6200, -51.742
1518.6400, -51.715
1518.6600, -51.676
1518.6800, -51.674
1518.7000, -51.663
1518.7200, -51.641
1518.7400, -51.623
1518.7600, -51.601
1518.7800, -51.574
1518.8000, -51.515
1518.8200, -51.504
1518.8400, -51.454
1518.8600, -51.434
1518.8800, -51.397
1518.9000, -51.376
1518.9200, -51.366
1518.9400, -51.356
1518.9600, -51.322
1518.9800, -51.278
1519.0000, -51.262
1519.0200, -51.230
1519.0400, -51.214
1519.0600, -51.179
1519.0800, -51.172
1519.1000, -51.144
1519.1200, -51.118
1519.1400, -51.075
1519.1600, -51.063
1519.1800, -51.053
1519.2000, -51.018
1519.2200, -50.980
1519.2400, -50.950
1519.2600, -50.925
1519.2800, -50.899
1519.3000, -50.868
1519.3200, -50.835
1519.3400, -50.811
1519.3600, -50.785
1519.3800, -50.784
1519.4000, -50.777
1519.4200, -50.737
1519.4400, -50.710
1519.4600, -50.682
1519.4800, -50.631
1519.5000, -50.619
1519.5200, -50.603
1519.5400, -50.580
1519.5600, -50.564
1519.5800, -50.538
1519.6000, -50.471
1519.6200, -50.474
1519.6400, -50.464
1519.6600, -50.436
1519.6800, -50.413
1519.7000, -50.391
1519.7200, -50.359
1519.7400, -50.306
1519.7600, -50.268
1519.7800, -50.220
1519.8000, -50.186
1519.8200, -50.156
1519.8400, -50.127
1519.8600, -50.105
1519.8800, -50.092
1519.9000, -50.066
1519.9200, -50.014
1519.9400, -49.994
1519.9600, -49.961
1519.9800, -49.927
1520.0000, -49.895
1520.0200, -49.881
1520.0400, -49.857
1520.0600, -49.818
1520.0800, -49.769
1520.1000, -49.739
1520.1200, -49.730
1520.1400, -49.700
1520.1600, -49.647
1520.1800, -49.619
1520.2000, -49.592
1520.2200, -49.555
1520.2400, -49.520
1520.2600, -49.523
1520.2800, -49.504
1520.3000, -49.471
1520.3200, -49.437
1520.3400, -49.396
1520.3600, -49.351
1520.3800, -49.340
1520.4000, -49.313
1520.4200, -49.238
1520.4400, -49.214
1520.4600, -49.207
1520.4800, -49.161
1520.5000, -49.138
1520.5200, -49.124
1520.5400, -49.049
1520.5600, -49.047
1520.5800, -49.022
1520.6000, -49.001
1520.6200, -48.971
