70BCSV 	
// AQ6370B OPTICAL SPECTRUM ANALYZER //                 
25
"CTRWL",1550.000000
"SPAN", 100.000000
"START WL",1500.000000
"STOP WL",1600.000000
"WLFREQ", 0
"REFL",-28.8
"LSCL", 5.0
"RESLN",0.100
"AVG",   1
"SMPLAUTO",      0
"SMPL",       5001
"SMPLINTVL",0.0200
"HIGH1"
"MEAS"
"LSUNT",0
"NMSKH","OFF"
"RESCOR",0
"RESPARM", 9050
"FREQPARM", 9050






"[TRACE DATA]"
1500.0000, -61.692
1500.0200, -61.663
1500.0400, -61.673
1500.0600, -61.674
1500.0800, -61.672
1500.1000, -61.623
1500.1200, -61.634
1500.1400, -61.641
1500.1600, -61.678
1500.1800, -61.592
1500.2000, -61.628
1500.2200, -61.611
1500.2400, -61.636
1500.2600, -61.609
1500.2800, -61.618
1500.3000, -61.587
1500.3200, -61.598
1500.3400, -61.588
1500.3600, -61.558
1500.3800, -61.585
1500.4000, -61.541
1500.4200, -61.552
1500.4400, -61.574
1500.4600, -61.520
1500.4800, -61.552
1500.5000, -61.526
1500.5200, -61.536
1500.5400, -61.516
1500.5600, -61.530
1500.5800, -61.517
1500.6000, -61.524
1500.6200, -61.500
1500.6400, -61.480
1500.6600, -61.512
1500.6800, -61.506
1500.7000, -61.467
1500.7200, -61.489
1500.7400, -61.459
1500.7600, -61.458
1500.7800, -61.481
1500.8000, -61.434
1500.8200, -61.416
1500.8400, -61.409
1500.8600, -61.431
1500.8800, -61.414
1500.9000, -61.434
1500.9200, -61.431
1500.9400, -61.418
1500.9600, -61.387
1500.9800, -61.406
1501.0000, -61.367
1501.0200, -61.444
1501.0400, -61.355
1501.0600, -61.371
1501.0800, -61.384
1501.1000, -61.403
1501.1200, -61.353
1501.1400, -61.355
1501.1600, -61.368
1501.1800, -61.390
1501.2000, -61.351
1501.2200, -61.360
1501.2400, -61.334
1501.2600, -61.377
1501.2800, -61.311
1501.3000, -61.280
1501.3200, -61.322
1501.3400, -61.287
1501.3600, -61.306
1501.3800, -61.255
1501.4000, -61.270
1501.4200, -61.272
1501.4400, -61.294
1501.4600, -61.241
1501.4800, -61.237
1501.5000, -61.247
1501.5200, -61.256
1501.5400, -61.232
1501.5600, -61.233
1501.5800, -61.209
1501.6000, -61.207
1501.6200, -61.252
1501.6400, -61.218
1501.6600, -61.195
1501.6800, -61.201
1501.7000, -61.186
1501.7200, -61.169
1501.7400, -61.169
1501.7600, -61.131
1501.7800, -61.205
1501.8000, -61.189
1501.8200, -61.151
1501.8400, -61.188
1501.8600, -61.143
1501.8800, -61.192
1501.9000, -61.160
1501.9200, -61.125
1501.9400, -61.126
1501.9600, -61.121
1501.9800, -61.131
1502.0000, -61.115
1502.0200, -61.104
1502.0400, -61.107
1502.0600, -61.089
1502.0800, -61.089
1502.1000, -61.063
1502.1200, -61.101
1502.1400, -61.110
1502.1600, -61.074
1502.1800, -61.054
1502.2000, -61.085
1502.2200, -61.038
1502.2400, -61.020
1502.2600, -61.032
1502.2800, -61.041
1502.3000, -60.966
1502.3200, -61.010
1502.3400, -60.989
1502.3600, -61.008
1502.3800, -61.009
1502.4000, -61.005
1502.4200, -60.963
1502.4400, -60.960
1502.4600, -60.945
1502.4800, -60.910
1502.5000, -60.959
1502.5200, -60.951
1502.5400, -60.911
1502.5600, -60.928
1502.5800, -60.914
1502.6000, -60.877
1502.6200, -60.915
1502.6400, -60.914
1502.6600, -60.869
1502.6800, -60.856
1502.7000, -60.905
1502.7200, -60.875
1502.7400, -60.862
1502.7600, -60.850
1502.7800, -60.867
1502.8000, -60.872
1502.8200, -60.841
1502.8400, -60.824
1502.8600, -60.843
1502.8800, -60.871
1502.9000, -60.790
1502.9200, -60.816
1502.9400, -60.787
1502.9600, -60.776
1502.9800, -60.783
1503.0000, -60.791
1503.0200, -60.818
1503.0400, -60.760
1503.0600, -60.735
1503.0800, -60.781
1503.1000, -60.770
1503.1200, -60.729
1503.1400, -60.767
1503.1600, -60.749
1503.1800, -60.765
1503.2000, -60.686
1503.2200, -60.748
1503.2400, -60.700
1503.2600, -60.663
1503.2800, -60.682
1503.3000, -60.723
1503.3200, -60.663
1503.3400, -60.659
1503.3600, -60.668
1503.3800, -60.658
1503.4000, -60.657
1503.4200, -60.636
1503.4400, -60.648
1503.4600, -60.634
1503.4800, -60.606
1503.5000, -60.616
1503.5200, -60.600
1503.5400, -60.556
1503.5600, -60.588
1503.5800, -60.597
1503.6000, -60.584
1503.6200, -60.567
1503.6400, -60.546
1503.6600, -60.549
1503.6800, -60.536
1503.7000, -60.528
1503.7200, -60.517
1503.7400, -60.517
1503.7600, -60.505
1503.7800, -60.518
1503.8000, -60.519
1503.8200, -60.504
1503.8400, -60.508
1503.8600, -60.500
1503.8800, -60.498
1503.9000, -60.481
1503.9200, -60.467
1503.9400, -60.427
1503.9600, -60.493
1503.9800, -60.450
1504.0000, -60.448
1504.0200, -60.456
1504.0400, -60.424
1504.0600, -60.404
1504.0800, -60.442
1504.1000, -60.417
1504.1200, -60.398
1504.1400, -60.382
1504.1600, -60.376
1504.1800, -60.389
1504.2000, -60.385
1504.2200, -60.378
1504.2400, -60.359
1504.2600, -60.324
1504.2800, -60.346
1504.3000, -60.308
1504.3200, -60.336
1504.3400, -60.312
1504.3600, -60.319
1504.3800, -60.272
1504.4000, -60.279
1504.4200, -60.292
1504.4400, -60.303
1504.4600, -60.277
1504.4800, -60.263
1504.5000, -60.264
1504.5200, -60.261
1504.5400, -60.254
1504.5600, -60.196
1504.5800, -60.220
1504.6000, -60.208
1504.6200, -60.202
1504.6400, -60.198
1504.6600, -60.162
1504.6800, -60.186
1504.7000, -60.198
1504.7200, -60.200
1504.7400, -60.178
1504.7600, -60.180
1504.7800, -60.133
1504.8000, -60.184
1504.8200, -60.151
1504.8400, -60.121
1504.8600, -60.108
1504.8800, -60.113
1504.9000, -60.095
1504.9200, -60.124
1504.9400, -60.091
1504.9600, -60.097
1504.9800, -60.068
1505.0000, -60.087
1505.0200, -60.090
1505.0400, -60.034
1505.0600, -60.062
1505.0800, -60.043
1505.1000, -60.062
1505.1200, -60.031
1505.1400, -59.969
1505.1600, -60.021
1505.1800, -60.004
1505.2000, -59.998
1505.2200, -59.987
1505.2400, -59.972
1505.2600, -59.971
1505.2800, -59.960
1505.3000, -59.948
1505.3200, -59.938
1505.3400, -59.947
1505.3600, -59.903
1505.3800, -59.923
1505.4000, -59.909
1505.4200, -59.895
1505.4400, -59.891
1505.4600, -59.912
1505.4800, -59.880
1505.5000, -59.852
1505.5200, -59.865
1505.5400, -59.860
1505.5600, -59.848
1505.5800, -59.839
1505.6000, -59.829
1505.6200, -59.834
1505.6400, -59.825
1505.6600, -59.782
1505.6800, -59.809
1505.7000, -59.784
1505.7200, -59.806
1505.7400, -59.783
1505.7600, -59.778
1505.7800, -59.761
1505.8000, -59.769
1505.8200, -59.760
1505.8400, -59.766
1505.8600, -59.741
1505.8800, -59.751
1505.9000, -59.708
1505.9200, -59.718
1505.9400, -59.728
1505.9600, -59.689
1505.9800, -59.711
1506.0000, -59.723
1506.0200, -59.678
1506.0400, -59.664
1506.0600, -59.676
1506.0800, -59.646
1506.1000, -59.658
1506.1200, -59.642
1506.1400, -59.637
1506.1600, -59.612
1506.1800, -59.613
1506.2000, -59.566
1506.2200, -59.616
1506.2400, -59.585
1506.2600, -59.581
1506.2800, -59.556
1506.3000, -59.557
1506.3200, -59.560
1506.3400, -59.520
1506.3600, -59.525
1506.3800, -59.554
1506.4000, -59.517
1506.4200, -59.519
1506.4400, -59.471
1506.4600, -59.484
1506.4800, -59.504
1506.5000, -59.469
1506.5200, -59.489
1506.5400, -59.472
1506.5600, -59.425
1506.5800, -59.449
1506.6000, -59.431
1506.6200, -59.453
1506.6400, -59.440
1506.6600, -59.410
1506.6800, -59.419
1506.7000, -59.414
1506.7200, -59.392
1506.7400, -59.382
1506.7600, -59.389
1506.7800, -59.391
1506.8000, -59.368
1506.8200, -59.354
1506.8400, -59.372
1506.8600, -59.348
1506.8800, -59.348
1506.9000, -59.298
1506.9200, -59.328
1506.9400, -59.332
1506.9600, -59.319
1506.9800, -59.294
1507.0000, -59.290
1507.0200, -59.288
1507.0400, -59.231
1507.0600, -59.290
1507.0800, -59.249
1507.1000, -59.246
1507.1200, -59.240
1507.1400, -59.225
1507.1600, -59.217
1507.1800, -59.221
1507.2000, -59.218
1507.2200, -59.195
1507.2400, -59.206
1507.2600, -59.171
1507.2800, -59.192
1507.3000, -59.165
1507.3200, -59.152
1507.3400, -59.142
1507.3600, -59.133
1507.3800, -59.129
1507.4000, -59.119
1507.4200, -59.113
1507.4400, -59.086
1507.4600, -59.105
1507.4800, -59.090
1507.5000, -59.047
1507.5200, -59.073
1507.5400, -59.060
1507.5600, -59.039
1507.5800, -59.073
1507.6000, -59.031
1507.6200, -59.030
1507.6400, -59.024
1507.6600, -59.037
1507.6800, -58.990
1507.7000, -58.986
1507.7200, -59.004
1507.7400, -58.977
1507.7600, -58.959
1507.7800, -58.968
1507.8000, -58.954
1507.8200, -58.955
1507.8400, -58.931
1507.8600, -58.946
1507.8800, -58.924
1507.9000, -58.919
1507.9200, -58.912
1507.9400, -58.867
1507.9600, -58.900
1507.9800, -58.899
1508.0000, -58.857
1508.0200, -58.862
1508.0400, -58.875
1508.0600, -58.841
1508.0800, -58.818
1508.1000, -58.814
1508.1200, -58.811
1508.1400, -58.807
1508.1600, -58.803
1508.1800, -58.787
1508.2000, -58.780
1508.2200, -58.791
1508.2400, -58.750
1508.2600, -58.761
1508.2800, -58.791
1508.3000, -58.764
1508.3200, -58.719
1508.3400, -58.748
1508.3600, -58.703
1508.3800, -58.720
1508.4000, -58.689
1508.4200, -58.688
1508.4400, -58.689
1508.4600, -58.664
1508.4800, -58.638
1508.5000, -58.651
1508.5200, -58.650
1508.5400, -58.653
1508.5600, -58.638
1508.5800, -58.619
1508.6000, -58.634
1508.6200, -58.615
1508.6400, -58.602
1508.6600, -58.582
1508.6800, -58.576
1508.7000, -58.582
1508.7200, -58.574
1508.7400, -58.572
1508.7600, -58.552
1508.7800, -58.540
1508.8000, -58.532
1508.8200, -58.530
1508.8400, -58.530
1508.8600, -58.525
1508.8800, -58.503
1508.9000, -58.496
1508.9200, -58.476
1508.9400, -58.463
1508.9600, -58.464
1508.9800, -58.459
1509.0000, -58.456
1509.0200, -58.423
1509.0400, -58.429
1509.0600, -58.413
1509.0800, -58.420
1509.1000, -58.420
1509.1200, -58.386
1509.1400, -58.390
1509.1600, -58.375
1509.1800, -58.354
1509.2000, -58.325
1509.2200, -58.342
1509.2400, -58.342
1509.2600, -58.319
1509.2800, -58.316
1509.3000, -58.321
1509.3200, -58.291
1509.3400, -58.271
1509.3600, -58.280
1509.3800, -58.286
1509.4000, -58.256
1509.4200, -58.247
1509.4400, -58.236
1509.4600, -58.209
1509.4800, -58.225
1509.5000, -58.227
1509.5200, -58.194
1509.5400, -58.213
1509.5600, -58.187
1509.5800, -58.187
1509.6000, -58.170
1509.6200, -58.167
1509.6400, -58.152
1509.6600, -58.132
1509.6800, -58.131
1509.7000, -58.129
1509.7200, -58.140
1509.7400, -58.112
1509.7600, -58.097
1509.7800, -58.100
1509.8000, -58.090
1509.8200, -58.080
1509.8400, -58.059
1509.8600, -58.048
1509.8800, -58.061
1509.9000, -58.005
1509.9200, -58.048
1509.9400, -58.008
1509.9600, -58.000
1509.9800, -57.998
1510.0000, -57.986
1510.0200, -57.984
1510.0400, -57.973
1510.0600, -57.947
1510.0800, -57.956
1510.1000, -57.942
1510.1200, -57.925
1510.1400, -57.935
1510.1600, -57.914
1510.1800, -57.892
1510.2000, -57.891
1510.2200, -57.870
1510.2400, -57.867
1510.2600, -57.866
1510.2800, -57.842
1510.3000, -57.829
1510.3200, -57.829
1510.3400, -57.809
1510.3600, -57.800
1510.3800, -57.796
1510.4000, -57.765
1510.4200, -57.768
1510.4400, -57.761
1510.4600, -57.753
1510.4800, -57.755
1510.5000, -57.728
1510.5200, -57.718
1510.5400, -57.720
1510.5600, -57.697
1510.5800, -57.696
1510.6000, -57.677
1510.6200, -57.659
1510.6400, -57.676
1510.6600, -57.631
1510.6800, -57.647
1510.7000, -57.632
1510.7200, -57.636
1510.7400, -57.602
1510.7600, -57.588
1510.7800, -57.585
1510.8000, -57.561
1510.8200, -57.573
1510.8400, -57.548
1510.8600, -57.527
1510.8800, -57.521
1510.9000, -57.515
1510.9200, -57.496
1510.9400, -57.499
1510.9600, -57.483
1510.9800, -57.471
1511.0000, -57.470
1511.0200, -57.433
1511.0400, -57.440
1511.0600, -57.428
1511.0800, -57.419
1511.1000, -57.386
1511.1200, -57.380
1511.1400, -57.394
1511.1600, -57.359
1511.1800, -57.352
1511.2000, -57.341
1511.2200, -57.354
1511.2400, -57.322
1511.2600, -57.312
1511.2800, -57.304
1511.3000, -57.290
1511.3200, -57.277
1511.3400, -57.263
1511.3600, -57.239
1511.3800, -57.256
1511.4000, -57.238
1511.4200, -57.215
1511.4400, -57.220
1511.4600, -57.207
1511.4800, -57.189
1511.5000, -57.175
1511.5200, -57.173
1511.5400, -57.163
1511.5600, -57.159
1511.5800, -57.126
1511.6000, -57.125
1511.6200, -57.129
1511.6400, -57.104
1511.6600, -57.104
1511.6800, -57.094
1511.7000, -57.074
1511.7200, -57.074
1511.7400, -57.060
1511.7600, -57.022
1511.7800, -57.035
1511.8000, -57.016
1511.8200, -57.007
1511.8400, -57.004
1511.8600, -56.969
1511.8800, -56.962
1511.9000, -56.958
1511.9200, -56.943
1511.9400, -56.936
1511.9600, -56.926
1511.9800, -56.899
1512.0000, -56.904
1512.0200, -56.869
1512.0400, -56.862
1512.0600, -56.843
1512.0800, -56.847
1512.1000, -56.830
1512.1200, -56.815
1512.1400, -56.810
1512.1600, -56.811
1512.1800, -56.791
1512.2000, -56.793
1512.2200, -56.763
1512.2400, -56.755
1512.2600, -56.746
1512.2800, -56.722
1512.3000, -56.694
1512.3200, -56.713
1512.3400, -56.706
1512.3600, -56.687
1512.3800, -56.679
1512.4000, -56.671
1512.4200, -56.658
1512.4400, -56.655
1512.4600, -56.640
1512.4800, -56.629
1512.5000, -56.600
1512.5200, -56.606
1512.5400, -56.604
1512.5600, -56.577
1512.5800, -56.565
1512.6000, -56.553
1512.6200, -56.544
1512.6400, -56.530
1512.6600, -56.524
1512.6800, -56.517
1512.7000, -56.496
1512.7200, -56.486
1512.7400, -56.467
1512.7600, -56.478
1512.7800, -56.458
1512.8000, -56.428
1512.8200, -56.410
1512.8400, -56.399
1512.8600, -56.404
1512.8800, -56.405
1512.9000, -56.382
1512.9200, -56.359
1512.9400, -56.363
1512.9600, -56.336
1512.9800, -56.329
1513.0000, -56.303
1513.0200, -56.302
1513.0400, -56.287
1513.0600, -56.276
1513.0800, -56.253
1513.1000, -56.266
1513.1200, -56.245
1513.1400, -56.244
1513.1600, -56.215
1513.1800, -56.218
1513.2000, -56.204
1513.2200, -56.173
1513.2400, -56.171
1513.2600, -56.159
1513.2800, -56.145
1513.3000, -56.136
1513.3200, -56.128
1513.3400, -56.103
1513.3600, -56.106
1513.3800, -56.096
1513.4000, -56.073
1513.4200, -56.079
1513.4400, -56.053
1513.4600, -56.035
1513.4800, -56.035
1513.5000, -56.018
1513.5200, -56.004
1513.5400, -55.997
1513.5600, -55.980
1513.5800, -55.963
1513.6000, -55.953
1513.6200, -55.949
1513.6400, -55.932
1513.6600, -55.923
1513.6800, -55.912
1513.7000, -55.884
1513.7200, -55.885
1513.7400, -55.874
1513.7600, -55.850
1513.7800, -55.832
1513.8000, -55.827
1513.8200, -55.824
1513.8400, -55.812
1513.8600, -55.784
1513.8800, -55.768
1513.9000, -55.760
1513.9200, -55.747
1513.9400, -55.734
1513.9600, -55.709
1513.9800, -55.702
1514.0000, -55.699
1514.0200, -55.665
1514.0400, -55.667
1514.0600, -55.654
1514.0800, -55.659
1514.1000, -55.629
1514.1200, -55.618
1514.1400, -55.614
1514.1600, -55.586
1514.1800, -55.570
1514.2000, -55.554
1514.2200, -55.542
1514.2400, -55.541
1514.2600, -55.540
1514.2800, -55.513
1514.3000, -55.504
1514.3200, -55.488
1514.3400, -55.471
1514.3600, -55.476
1514.3800, -55.457
1514.4000, -55.432
1514.4200, -55.422
1514.4400, -55.414
1514.4600, -55.405
1514.4800, -55.383
1514.5000, -55.376
1514.5200, -55.352
1514.5400, -55.349
1514.5600, -55.336
1514.5800, -55.337
1514.6000, -55.321
1514.6200, -55.312
1514.6400, -55.278
1514.6600, -55.272
1514.6800, -55.250
1514.7000, -55.245
1514.7200, -55.212
1514.7400, -55.213
1514.7600, -55.196
1514.7800, -55.188
1514.8000, -55.182
1514.8200, -55.157
1514.8400, -55.145
1514.8600, -55.138
1514.8800, -55.125
1514.9000, -55.097
1514.9200, -55.081
1514.9400, -55.077
1514.9600, -55.061
1514.9800, -55.030
1515.0000, -55.036
1515.0200, -55.019
1515.0400, -54.999
1515.0600, -55.001
1515.0800, -54.981
1515.1000, -54.960
1515.1200, -54.944
1515.1400, -54.907
1515.1600, -54.914
1515.1800, -54.889
1515.2000, -54.891
1515.2200, -54.873
1515.2400, -54.860
1515.2600, -54.851
1515.2800, -54.832
1515.3000, -54.817
1515.3200, -54.809
1515.3400, -54.788
1515.3600, -54.773
1515.3800, -54.766
1515.4000, -54.750
1515.4200, -54.726
1515.4400, -54.726
1515.4600, -54.701
1515.4800, -54.686
1515.5000, -54.670
1515.5200, -54.655
1515.5400, -54.647
1515.5600, -54.641
1515.5800, -54.610
1515.6000, -54.579
1515.6200, -54.590
1515.6400, -54.574
1515.6600, -54.540
1515.6800, -54.536
1515.7000, -54.525
1515.7200, -54.514
1515.7400, -54.503
1515.7600, -54.475
1515.7800, -54.464
1515.8000, -54.452
1515.8200, -54.436
1515.8400, -54.424
1515.8600, -54.401
1515.8800, -54.380
1515.9000, -54.375
1515.9200, -54.348
1515.9400, -54.345
1515.9600, -54.322
1515.9800, -54.316
1516.0000, -54.282
1516.0200, -54.276
1516.0400, -54.268
1516.0600, -54.233
1516.0800, -54.223
1516.1000, -54.191
1516.1200, -54.198
1516.1400, -54.185
1516.1600, -54.167
1516.1800, -54.154
1516.2000, -54.139
1516.2200, -54.121
1516.2400, -54.091
1516.2600, -54.095
1516.2800, -54.087
1516.3000, -54.065
1516.3200, -54.035
1516.3400, -54.038
1516.3600, -54.015
1516.3800, -54.002
1516.4000, -53.980
1516.4200, -53.957
1516.4400, -53.940
1516.4600, -53.933
1516.4800, -53.906
1516.5000, -53.895
1516.5200, -53.878
1516.5400, -53.856
1516.5600, -53.851
1516.5800, -53.833
1516.6000, -53.801
1516.6200, -53.784
1516.6400, -53.786
1516.6600, -53.768
1516.6800, -53.741
1516.7000, -53.716
1516.7200, -53.698
1516.7400, -53.687
1516.7600, -53.673
1516.7800, -53.650
1516.8000, -53.631
1516.8200, -53.605
1516.8400, -53.615
1516.8600, -53.583
1516.8800, -53.554
1516.9000, -53.548
1516.9200, -53.534
1516.9400, -53.501
1516.9600, -53.490
1516.9800, -53.471
1517.0000, -53.453
1517.0200, -53.438
1517.0400, -53.420
1517.0600, -53.401
1517.0800, -53.385
1517.1000, -53.371
1517.1200, -53.328
1517.1400, -53.330
1517.1600, -53.316
1517.1800, -53.289
1517.2000, -53.275
1517.2200, -53.261
1517.2400, -53.236
1517.2600, -53.215
1517.2800, -53.207
1517.3000, -53.193
1517.3200, -53.175
1517.3400, -53.157
1517.3600, -53.133
1517.3800, -53.119
1517.4000, -53.078
1517.4200, -53.076
1517.4400, -53.058
1517.4600, -53.039
1517.4800, -53.006
1517.5000, -53.000
1517.5200, -52.980
1517.5400, -52.960
1517.5600, -52.922
1517.5800, -52.922
1517.6000, -52.907
1517.6200, -52.893
1517.6400, -52.860
1517.6600, -52.827
1517.6800, -52.822
1517.7000, -52.803
1517.7200, -52.772
1517.7400, -52.751
1517.7600, -52.730
1517.7800, -52.713
1517.8000, -52.689
1517.8200, -52.668
1517.8400, -52.653
1517.8600, -52.640
1517.8800, -52.608
1517.9000, -52.588
1517.9200, -52.573
1517.9400, -52.556
1517.9600, -52.529
1517.9800, -52.482
1518.0000, -52.473
1518.0200, -52.471
1518.0400, -52.453
1518.0600, -52.422
1518.0800, -52.412
1518.1000, -52.390
1518.1200, -52.366
1518.1400, -52.344
1518.1600, -52.330
1518.1800, -52.297
1518.2000, -52.282
1518.2200, -52.260
1518.2400, -52.240
1518.2600, -52.225
1518.2800, -52.204
1518.3000, -52.176
1518.3200, -52.161
1518.3400, -52.135
1518.3600, -52.121
1518.3800, -52.094
1518.4000, -52.076
1518.4200, -52.048
1518.4400, -52.007
1518.4600, -52.010
1518.4800, -51.980
1518.5000, -51.934
1518.5200, -51.926
1518.5400, -51.903
1518.5600, -51.890
1518.5800, -51.861
1518.6000, -51.832
1518.6200, -51.825
1518.6400, -51.800
1518.6600, -51.768
1518.6800, -51.730
1518.7000, -51.714
1518.7200, -51.692
1518.7400, -51.669
1518.7600, -51.639
1518.7800, -51.627
1518.8000, -51.610
1518.8200, -51.584
1518.8400, -51.544
1518.8600, -51.530
1518.8800, -51.513
1518.9000, -51.472
1518.9200, -51.430
1518.9400, -51.431
1518.9600, -51.418
1518.9800, -51.395
1519.0000, -51.347
1519.0200, -51.337
1519.0400, -51.324
1519.0600, -51.297
1519.0800, -51.285
1519.1000, -51.246
1519.1200, -51.218
1519.1400, -51.195
1519.1600, -51.168
1519.1800, -51.149
1519.2000, -51.121
1519.2200, -51.104
1519.2400, -51.070
1519.2600, -51.039
1519.2800, -51.019
1519.3000, -50.989
1519.3200, -50.968
1519.3400, -50.941
1519.3600, -50.908
1519.3800, -50.871
1519.4000, -50.864
1519.4200, -50.817
1519.4400, -50.781
1519.4600, -50.770
1519.4800, -50.748
1519.5000, -50.731
1519.5200, -50.699
1519.5400, -50.643
1519.5600, -50.640
1519.5800, -50.616
1519.6000, -50.571
1519.6200, -50.545
1519.6400, -50.530
1519.6600, -50.498
1519.6800, -50.465
1519.7000, -50.421
1519.7200, -50.395
1519.7400, -50.388
1519.7600, -50.364
1519.7800, -50.320
1519.8000, -50.301
1519.8200, -50.274
1519.8400, -50.240
1519.8600, -50.203
1519.8800, -50.188
1519.9000, -50.164
1519.9200, -50.134
1519.9400, -50.090
1519.9600, -50.068
1519.9800, -50.045
1520.0000, -50.015
1520.0200, -49.985
1520.0400, -49.958
1520.0600, -49.931
1520.0800, -49.891
1520.1000, -49.857
1520.1200, -49.834
1520.1400, -49.803
1520.1600, -49.762
1520.1800, -49.738
1520.2000, -49.704
1520.2200, -49.676
1520.2400, -49.655
1520.2600, -49.619
1520.2800, -49.591
1520.3000, -49.556
1520.3200, -49.523
1520.3400, -49.501
1520.3600, -49.442
1520.3800, -49.413
1520.4000, -49.387
1520.4200, -49.339
1520.4400, -49.337
1520.4600, -49.305
1520.4800, -49.252
1520.5000, -49.231
1520.5200, -49.214
1520.5400, -49.157
1520.5600, -49.120
1520.5800, -49.100
1520.6000, -49.049
1520.6200, -49.026
