70BCSV 	
// AQ6370B OPTICAL SPECTRUM ANALYZER //                 
25
"CTRWL",1550.000000
"SPAN", 100.000000
"START WL",1500.000000
"STOP WL",1600.000000
"WLFREQ", 0
"REFL",-28.8
"LSCL", 5.0
"RESLN",0.100
"AVG",   1
"SMPLAUTO",      0
"SMPL",       5001
"SMPLINTVL",0.0200
"HIGH1"
"MEAS"
"LSUNT",0
"NMSKH","OFF"
"RESCOR",0
"RESPARM", 9050
"FREQPARM", 9050






"[TRACE DATA]"
1500.0000, -61.653
1500.0200, -61.669
1500.0400, -61.646
1500.0600, -61.640
1500.0800, -61.665
1500.1000, -61.643
1500.1200, -61.626
1500.1400, -61.619
1500.1600, -61.623
1500.1800, -61.612
1500.2000, -61.598
1500.2200, -61.612
1500.2400, -61.624
1500.2600, -61.585
1500.2800, -61.577
1500.3000, -61.595
1500.3200, -61.573
1500.3400, -61.570
1500.3600, -61.573
1500.3800, -61.592
1500.4000, -61.560
1500.4200, -61.496
1500.4400, -61.546
1500.4600, -61.524
1500.4800, -61.533
1500.5000, -61.512
1500.5200, -61.517
1500.5400, -61.529
1500.5600, -61.525
1500.5800, -61.520
1500.6000, -61.515
1500.6200, -61.499
1500.6400, -61.491
1500.6600, -61.506
1500.6800, -61.476
1500.7000, -61.479
1500.7200, -61.487
1500.7400, -61.481
1500.7600, -61.469
1500.7800, -61.441
1500.8000, -61.484
1500.8200, -61.445
1500.8400, -61.455
1500.8600, -61.438
1500.8800, -61.409
1500.9000, -61.468
1500.9200, -61.425
1500.9400, -61.379
1500.9600, -61.432
1500.9800, -61.397
1501.0000, -61.380
1501.0200, -61.385
1501.0400, -61.380
1501.0600, -61.344
1501.0800, -61.363
1501.1000, -61.359
1501.1200, -61.346
1501.1400, -61.354
1501.1600, -61.344
1501.1800, -61.342
1501.2000, -61.329
1501.2200, -61.303
1501.2400, -61.297
1501.2600, -61.311
1501.2800, -61.312
1501.3000, -61.322
1501.3200, -61.279
1501.3400, -61.303
1501.3600, -61.261
1501.3800, -61.296
1501.4000, -61.263
1501.4200, -61.262
1501.4400, -61.262
1501.4600, -61.264
1501.4800, -61.229
1501.5000, -61.243
1501.5200, -61.260
1501.5400, -61.209
1501.5600, -61.251
1501.5800, -61.244
1501.6000, -61.239
1501.6200, -61.197
1501.6400, -61.219
1501.6600, -61.205
1501.6800, -61.195
1501.7000, -61.205
1501.7200, -61.181
1501.7400, -61.181
1501.7600, -61.194
1501.7800, -61.178
1501.8000, -61.178
1501.8200, -61.185
1501.8400, -61.172
1501.8600, -61.184
1501.8800, -61.194
1501.9000, -61.150
1501.9200, -61.154
1501.9400, -61.114
1501.9600, -61.133
1501.9800, -61.068
1502.0000, -61.152
1502.0200, -61.092
1502.0400, -61.074
1502.0600, -61.084
1502.0800, -61.052
1502.1000, -61.096
1502.1200, -61.081
1502.1400, -61.011
1502.1600, -61.058
1502.1800, -61.040
1502.2000, -61.034
1502.2200, -61.017
1502.2400, -61.004
1502.2600, -61.017
1502.2800, -61.028
1502.3000, -60.999
1502.3200, -61.010
1502.3400, -60.994
1502.3600, -60.988
1502.3800, -60.933
1502.4000, -60.988
1502.4200, -60.942
1502.4400, -60.962
1502.4600, -60.927
1502.4800, -60.929
1502.5000, -60.942
1502.5200, -60.947
1502.5400, -60.936
1502.5600, -60.895
1502.5800, -60.924
1502.6000, -60.884
1502.6200, -60.895
1502.6400, -60.875
1502.6600, -60.908
1502.6800, -60.881
1502.7000, -60.868
1502.7200, -60.880
1502.7400, -60.880
1502.7600, -60.869
1502.7800, -60.876
1502.8000, -60.868
1502.8200, -60.843
1502.8400, -60.852
1502.8600, -60.804
1502.8800, -60.805
1502.9000, -60.832
1502.9200, -60.803
1502.9400, -60.784
1502.9600, -60.772
1502.9800, -60.785
1503.0000, -60.765
1503.0200, -60.760
1503.0400, -60.761
1503.0600, -60.751
1503.0800, -60.732
1503.1000, -60.720
1503.1200, -60.744
1503.1400, -60.730
1503.1600, -60.726
1503.1800, -60.738
1503.2000, -60.686
1503.2200, -60.692
1503.2400, -60.707
1503.2600, -60.702
1503.2800, -60.682
1503.3000, -60.677
1503.3200, -60.662
1503.3400, -60.643
1503.3600, -60.655
1503.3800, -60.618
1503.4000, -60.641
1503.4200, -60.642
1503.4400, -60.642
1503.4600, -60.631
1503.4800, -60.604
1503.5000, -60.610
1503.5200, -60.601
1503.5400, -60.599
1503.5600, -60.581
1503.5800, -60.585
1503.6000, -60.544
1503.6200, -60.572
1503.6400, -60.572
1503.6600, -60.568
1503.6800, -60.538
1503.7000, -60.517
1503.7200, -60.547
1503.7400, -60.528
1503.7600, -60.541
1503.7800, -60.526
1503.8000, -60.519
1503.8200, -60.494
1503.8400, -60.495
1503.8600, -60.486
1503.8800, -60.497
1503.9000, -60.468
1503.9200, -60.463
1503.9400, -60.452
1503.9600, -60.435
1503.9800, -60.430
1504.0000, -60.451
1504.0200, -60.457
1504.0400, -60.412
1504.0600, -60.421
1504.0800, -60.399
1504.1000, -60.401
1504.1200, -60.399
1504.1400, -60.362
1504.1600, -60.369
1504.1800, -60.361
1504.2000, -60.359
1504.2200, -60.351
1504.2400, -60.342
1504.2600, -60.325
1504.2800, -60.313
1504.3000, -60.330
1504.3200, -60.308
1504.3400, -60.325
1504.3600, -60.287
1504.3800, -60.315
1504.4000, -60.292
1504.4200, -60.307
1504.4400, -60.282
1504.4600, -60.267
1504.4800, -60.253
1504.5000, -60.250
1504.5200, -60.248
1504.5400, -60.229
1504.5600, -60.223
1504.5800, -60.228
1504.6000, -60.217
1504.6200, -60.200
1504.6400, -60.173
1504.6600, -60.204
1504.6800, -60.206
1504.7000, -60.163
1504.7200, -60.161
1504.7400, -60.167
1504.7600, -60.169
1504.7800, -60.179
1504.8000, -60.172
1504.8200, -60.136
1504.8400, -60.128
1504.8600, -60.132
1504.8800, -60.111
1504.9000, -60.100
1504.9200, -60.115
1504.9400, -60.074
1504.9600, -60.051
1504.9800, -60.069
1505.0000, -60.065
1505.0200, -60.041
1505.0400, -60.064
1505.0600, -60.043
1505.0800, -60.011
1505.1000, -60.041
1505.1200, -60.007
1505.1400, -60.018
1505.1600, -59.992
1505.1800, -59.985
1505.2000, -59.984
1505.2200, -59.987
1505.2400, -59.973
1505.2600, -59.943
1505.2800, -59.916
1505.3000, -59.966
1505.3200, -59.957
1505.3400, -59.951
1505.3600, -59.913
1505.3800, -59.905
1505.4000, -59.904
1505.4200, -59.902
1505.4400, -59.891
1505.4600, -59.898
1505.4800, -59.861
1505.5000, -59.871
1505.5200, -59.848
1505.5400, -59.846
1505.5600, -59.854
1505.5800, -59.832
1505.6000, -59.838
1505.6200, -59.844
1505.6400, -59.824
1505.6600, -59.829
1505.6800, -59.827
1505.7000, -59.806
1505.7200, -59.778
1505.7400, -59.801
1505.7600, -59.762
1505.7800, -59.772
1505.8000, -59.751
1505.8200, -59.742
1505.8400, -59.732
1505.8600, -59.741
1505.8800, -59.709
1505.9000, -59.709
1505.9200, -59.710
1505.9400, -59.687
1505.9600, -59.717
1505.9800, -59.691
1506.0000, -59.641
1506.0200, -59.675
1506.0400, -59.647
1506.0600, -59.649
1506.0800, -59.636
1506.1000, -59.633
1506.1200, -59.628
1506.1400, -59.639
1506.1600, -59.595
1506.1800, -59.602
1506.2000, -59.592
1506.2200, -59.572
1506.2400, -59.565
1506.2600, -59.578
1506.2800, -59.551
1506.3000, -59.562
1506.3200, -59.558
1506.3400, -59.538
1506.3600, -59.531
1506.3800, -59.522
1506.4000, -59.532
1506.4200, -59.506
1506.4400, -59.513
1506.4600, -59.491
1506.4800, -59.488
1506.5000, -59.463
1506.5200, -59.471
1506.5400, -59.482
1506.5600, -59.447
1506.5800, -59.466
1506.6000, -59.440
1506.6200, -59.446
1506.6400, -59.437
1506.6600, -59.440
1506.6800, -59.408
1506.7000, -59.406
1506.7200, -59.410
1506.7400, -59.395
1506.7600, -59.371
1506.7800, -59.353
1506.8000, -59.339
1506.8200, -59.360
1506.8400, -59.339
1506.8600, -59.329
1506.8800, -59.322
1506.9000, -59.315
1506.9200, -59.315
1506.9400, -59.297
1506.9600, -59.291
1506.9800, -59.290
1507.0000, -59.285
1507.0200, -59.253
1507.0400, -59.257
1507.0600, -59.258
1507.0800, -59.229
1507.1000, -59.207
1507.1200, -59.238
1507.1400, -59.220
1507.1600, -59.222
1507.1800, -59.211
1507.2000, -59.200
1507.2200, -59.166
1507.2400, -59.162
1507.2600, -59.176
1507.2800, -59.190
1507.3000, -59.165
1507.3200, -59.152
1507.3400, -59.152
1507.3600, -59.124
1507.3800, -59.122
1507.4000, -59.117
1507.4200, -59.112
1507.4400, -59.092
1507.4600, -59.094
1507.4800, -59.076
1507.5000, -59.070
1507.5200, -59.087
1507.5400, -59.060
1507.5600, -59.072
1507.5800, -59.050
1507.6000, -59.043
1507.6200, -59.036
1507.6400, -59.025
1507.6600, -59.025
1507.6800, -59.007
1507.7000, -58.987
1507.7200, -58.990
1507.7400, -58.970
1507.7600, -58.948
1507.7800, -58.944
1507.8000, -58.947
1507.8200, -58.924
1507.8400, -58.912
1507.8600, -58.913
1507.8800, -58.910
1507.9000, -58.903
1507.9200, -58.880
1507.9400, -58.876
1507.9600, -58.872
1507.9800, -58.859
1508.0000, -58.847
1508.0200, -58.853
1508.0400, -58.841
1508.0600, -58.807
1508.0800, -58.816
1508.1000, -58.807
1508.1200, -58.814
1508.1400, -58.798
1508.1600, -58.788
1508.1800, -58.799
1508.2000, -58.789
1508.2200, -58.757
1508.2400, -58.742
1508.2600, -58.784
1508.2800, -58.741
1508.3000, -58.742
1508.3200, -58.739
1508.3400, -58.709
1508.3600, -58.738
1508.3800, -58.714
1508.4000, -58.680
1508.4200, -58.707
1508.4400, -58.668
1508.4600, -58.662
1508.4800, -58.635
1508.5000, -58.682
1508.5200, -58.663
1508.5400, -58.633
1508.5600, -58.660
1508.5800, -58.635
1508.6000, -58.622
1508.6200, -58.602
1508.6400, -58.608
1508.6600, -58.595
1508.6800, -58.567
1508.7000, -58.545
1508.7200, -58.561
1508.7400, -58.545
1508.7600, -58.545
1508.7800, -58.513
1508.8000, -58.517
1508.8200, -58.525
1508.8400, -58.516
1508.8600, -58.481
1508.8800, -58.478
1508.9000, -58.478
1508.9200, -58.482
1508.9400, -58.452
1508.9600, -58.442
1508.9800, -58.428
1509.0000, -58.416
1509.0200, -58.419
1509.0400, -58.389
1509.0600, -58.396
1509.0800, -58.397
1509.1000, -58.375
1509.1200, -58.397
1509.1400, -58.377
1509.1600, -58.361
1509.1800, -58.363
1509.2000, -58.349
1509.2200, -58.326
1509.2400, -58.320
1509.2600, -58.319
1509.2800, -58.321
1509.3000, -58.295
1509.3200, -58.304
1509.3400, -58.267
1509.3600, -58.272
1509.3800, -58.272
1509.4000, -58.262
1509.4200, -58.226
1509.4400, -58.244
1509.4600, -58.239
1509.4800, -58.221
1509.5000, -58.221
1509.5200, -58.202
1509.5400, -58.180
1509.5600, -58.171
1509.5800, -58.156
1509.6000, -58.173
1509.6200, -58.172
1509.6400, -58.129
1509.6600, -58.122
1509.6800, -58.131
1509.7000, -58.103
1509.7200, -58.109
1509.7400, -58.087
1509.7600, -58.082
1509.7800, -58.080
1509.8000, -58.055
1509.8200, -58.050
1509.8400, -58.040
1509.8600, -58.040
1509.8800, -58.049
1509.9000, -58.017
1509.9200, -57.997
1509.9400, -58.007
1509.9600, -57.987
1509.9800, -57.990
1510.0000, -57.961
1510.0200, -57.971
1510.0400, -57.947
1510.0600, -57.944
1510.0800, -57.931
1510.1000, -57.919
1510.1200, -57.917
1510.1400, -57.912
1510.1600, -57.896
1510.1800, -57.899
1510.2000, -57.869
1510.2200, -57.858
1510.2400, -57.869
1510.2600, -57.856
1510.2800, -57.851
1510.3000, -57.823
1510.3200, -57.813
1510.3400, -57.807
1510.3600, -57.813
1510.3800, -57.776
1510.4000, -57.783
1510.4200, -57.745
1510.4400, -57.751
1510.4600, -57.746
1510.4800, -57.732
1510.5000, -57.717
1510.5200, -57.688
1510.5400, -57.717
1510.5600, -57.713
1510.5800, -57.675
1510.6000, -57.655
1510.6200, -57.667
1510.6400, -57.640
1510.6600, -57.633
1510.6800, -57.620
1510.7000, -57.602
1510.7200, -57.594
1510.7400, -57.601
1510.7600, -57.568
1510.7800, -57.556
1510.8000, -57.544
1510.8200, -57.545
1510.8400, -57.539
1510.8600, -57.526
1510.8800, -57.510
1510.9000, -57.499
1510.9200, -57.492
1510.9400, -57.468
1510.9600, -57.467
1510.9800, -57.471
1511.0000, -57.434
1511.0200, -57.427
1511.0400, -57.408
1511.0600, -57.410
1511.0800, -57.410
1511.1000, -57.405
1511.1200, -57.386
1511.1400, -57.367
1511.1600, -57.357
1511.1800, -57.352
1511.2000, -57.340
1511.2200, -57.332
1511.2400, -57.321
1511.2600, -57.314
1511.2800, -57.306
1511.3000, -57.278
1511.3200, -57.272
1511.3400, -57.269
1511.3600, -57.255
1511.3800, -57.233
1511.4000, -57.219
1511.4200, -57.237
1511.4400, -57.210
1511.4600, -57.182
1511.4800, -57.165
1511.5000, -57.159
1511.5200, -57.169
1511.5400, -57.144
1511.5600, -57.134
1511.5800, -57.122
1511.6000, -57.116
1511.6200, -57.098
1511.6400, -57.090
1511.6600, -57.082
1511.6800, -57.057
1511.7000, -57.057
1511.7200, -57.049
1511.7400, -57.027
1511.7600, -57.016
1511.7800, -57.000
1511.8000, -57.010
1511.8200, -56.984
1511.8400, -56.967
1511.8600, -56.957
1511.8800, -56.946
1511.9000, -56.936
1511.9200, -56.926
1511.9400, -56.916
1511.9600, -56.890
1511.9800, -56.871
1512.0000, -56.871
1512.0200, -56.866
1512.0400, -56.855
1512.0600, -56.851
1512.0800, -56.835
1512.1000, -56.828
1512.1200, -56.814
1512.1400, -56.808
1512.1600, -56.788
1512.1800, -56.781
1512.2000, -56.773
1512.2200, -56.757
1512.2400, -56.740
1512.2600, -56.734
1512.2800, -56.734
1512.3000, -56.722
1512.3200, -56.708
1512.3400, -56.706
1512.3600, -56.676
1512.3800, -56.674
1512.4000, -56.668
1512.4200, -56.656
1512.4400, -56.636
1512.4600, -56.633
1512.4800, -56.616
1512.5000, -56.600
1512.5200, -56.582
1512.5400, -56.563
1512.5600, -56.564
1512.5800, -56.552
1512.6000, -56.541
1512.6200, -56.527
1512.6400, -56.511
1512.6600, -56.511
1512.6800, -56.485
1512.7000, -56.472
1512.7200, -56.463
1512.7400, -56.459
1512.7600, -56.454
1512.7800, -56.408
1512.8000, -56.405
1512.8200, -56.414
1512.8400, -56.398
1512.8600, -56.379
1512.8800, -56.361
1512.9000, -56.372
1512.9200, -56.363
1512.9400, -56.322
1512.9600, -56.330
1512.9800, -56.322
1513.0000, -56.305
1513.0200, -56.288
1513.0400, -56.288
1513.0600, -56.263
1513.0800, -56.258
1513.1000, -56.236
1513.1200, -56.217
1513.1400, -56.225
1513.1600, -56.211
1513.1800, -56.199
1513.2000, -56.192
1513.2200, -56.168
1513.2400, -56.168
1513.2600, -56.154
1513.2800, -56.132
1513.3000, -56.135
1513.3200, -56.113
1513.3400, -56.102
1513.3600, -56.086
1513.3800, -56.068
1513.4000, -56.067
1513.4200, -56.065
1513.4400, -56.043
1513.4600, -56.018
1513.4800, -56.000
1513.5000, -55.998
1513.5200, -55.990
1513.5400, -55.968
1513.5600, -55.964
1513.5800, -55.940
1513.6000, -55.942
1513.6200, -55.923
1513.6400, -55.907
1513.6600, -55.878
1513.6800, -55.895
1513.7000, -55.875
1513.7200, -55.843
1513.7400, -55.839
1513.7600, -55.835
1513.7800, -55.834
1513.8000, -55.793
1513.8200, -55.798
1513.8400, -55.789
1513.8600, -55.772
1513.8800, -55.751
1513.9000, -55.724
1513.9200, -55.711
1513.9400, -55.722
1513.9600, -55.715
1513.9800, -55.701
1514.0000, -55.683
1514.0200, -55.671
1514.0400, -55.655
1514.0600, -55.646
1514.0800, -55.622
1514.1000, -55.614
1514.1200, -55.604
1514.1400, -55.586
1514.1600, -55.589
1514.1800, -55.574
1514.2000, -55.570
1514.2200, -55.543
1514.2400, -55.541
1514.2600, -55.539
1514.2800, -55.517
1514.3000, -55.517
1514.3200, -55.479
1514.3400, -55.456
1514.3600, -55.452
1514.3800, -55.424
1514.4000, -55.431
1514.4200, -55.388
1514.4400, -55.386
1514.4600, -55.380
1514.4800, -55.358
1514.5000, -55.364
1514.5200, -55.332
1514.5400, -55.328
1514.5600, -55.320
1514.5800, -55.286
1514.6000, -55.279
1514.6200, -55.271
1514.6400, -55.267
1514.6600, -55.247
1514.6800, -55.215
1514.7000, -55.212
1514.7200, -55.208
1514.7400, -55.185
1514.7600, -55.174
1514.7800, -55.152
1514.8000, -55.151
1514.8200, -55.147
1514.8400, -55.109
1514.8600, -55.096
1514.8800, -55.083
1514.9000, -55.086
1514.9200, -55.080
1514.9400, -55.058
1514.9600, -55.043
1514.9800, -55.036
1515.0000, -55.001
1515.0200, -55.015
1515.0400, -54.987
1515.0600, -54.972
1515.0800, -54.959
1515.1000, -54.947
1515.1200, -54.929
1515.1400, -54.928
1515.1600, -54.890
1515.1800, -54.895
1515.2000, -54.879
1515.2200, -54.862
1515.2400, -54.858
1515.2600, -54.838
1515.2800, -54.801
1515.3000, -54.799
1515.3200, -54.800
1515.3400, -54.783
1515.3600, -54.768
1515.3800, -54.728
1515.4000, -54.722
1515.4200, -54.716
1515.4400, -54.702
1515.4600, -54.680
1515.4800, -54.655
1515.5000, -54.656
1515.5200, -54.630
1515.5400, -54.614
1515.5600, -54.598
1515.5800, -54.606
1515.6000, -54.590
1515.6200, -54.552
1515.6400, -54.531
1515.6600, -54.542
1515.6800, -54.511
1515.7000, -54.497
1515.7200, -54.485
1515.7400, -54.476
1515.7600, -54.458
1515.7800, -54.453
1515.8000, -54.433
1515.8200, -54.428
1515.8400, -54.408
1515.8600, -54.397
1515.8800, -54.380
1515.9000, -54.360
1515.9200, -54.339
1515.9400, -54.325
1515.9600, -54.322
1515.9800, -54.297
1516.0000, -54.285
1516.0200, -54.264
1516.0400, -54.247
1516.0600, -54.214
1516.0800, -54.228
1516.1000, -54.211
1516.1200, -54.182
1516.1400, -54.184
1516.1600, -54.154
1516.1800, -54.140
1516.2000, -54.123
1516.2200, -54.102
1516.2400, -54.085
1516.2600, -54.072
1516.2800, -54.070
1516.3000, -54.043
1516.3200, -54.024
1516.3400, -54.014
1516.3600, -53.996
1516.3800, -53.967
1516.4000, -53.961
1516.4200, -53.937
1516.4400, -53.914
1516.4600, -53.909
1516.4800, -53.877
1516.5000, -53.869
1516.5200, -53.856
1516.5400, -53.850
1516.5600, -53.817
1516.5800, -53.798
1516.6000, -53.804
1516.6200, -53.766
1516.6400, -53.736
1516.6600, -53.734
1516.6800, -53.708
1516.7000, -53.706
1516.7200, -53.679
1516.7400, -53.642
1516.7600, -53.629
1516.7800, -53.646
1516.8000, -53.617
1516.8200, -53.603
1516.8400, -53.588
1516.8600, -53.580
1516.8800, -53.547
1516.9000, -53.542
1516.9200, -53.520
1516.9400, -53.493
1516.9600, -53.476
1516.9800, -53.463
1517.0000, -53.445
1517.0200, -53.430
1517.0400, -53.418
1517.0600, -53.403
1517.0800, -53.384
1517.1000, -53.357
1517.1200, -53.334
1517.1400, -53.317
1517.1600, -53.311
1517.1800, -53.266
1517.2000, -53.254
1517.2200, -53.257
1517.2400, -53.232
1517.2600, -53.200
1517.2800, -53.169
1517.3000, -53.173
1517.3200, -53.153
1517.3400, -53.125
1517.3600, -53.110
1517.3800, -53.077
1517.4000, -53.062
1517.4200, -53.040
1517.4400, -53.025
1517.4600, -52.999
1517.4800, -53.008
1517.5000, -52.992
1517.5200, -52.943
1517.5400, -52.930
1517.5600, -52.911
1517.5800, -52.891
1517.6000, -52.873
1517.6200, -52.844
1517.6400, -52.838
1517.6600, -52.803
1517.6800, -52.771
1517.7000, -52.775
1517.7200, -52.765
1517.7400, -52.740
1517.7600, -52.724
1517.7800, -52.705
1517.8000, -52.685
1517.8200, -52.673
1517.8400, -52.638
1517.8600, -52.626
1517.8800, -52.595
1517.9000, -52.581
1517.9200, -52.563
1517.9400, -52.538
1517.9600, -52.522
1517.9800, -52.509
1518.0000, -52.487
1518.0200, -52.474
1518.0400, -52.441
1518.0600, -52.420
1518.0800, -52.393
1518.1000, -52.367
1518.1200, -52.340
1518.1400, -52.320
1518.1600, -52.320
1518.1800, -52.301
1518.2000, -52.270
1518.2200, -52.226
1518.2400, -52.222
1518.2600, -52.197
1518.2800, -52.174
1518.3000, -52.162
1518.3200, -52.136
1518.3400, -52.102
1518.3600, -52.084
1518.3800, -52.053
1518.4000, -52.032
1518.4200, -52.030
1518.4400, -52.018
1518.4600, -51.970
1518.4800, -51.943
1518.5000, -51.928
1518.5200, -51.907
1518.5400, -51.881
1518.5600, -51.845
1518.5800, -51.840
1518.6000, -51.809
1518.6200, -51.763
1518.6400, -51.761
1518.6600, -51.755
1518.6800, -51.729
1518.7000, -51.705
1518.7200, -51.690
1518.7400, -51.664
1518.7600, -51.636
1518.7800, -51.601
1518.8000, -51.601
1518.8200, -51.560
1518.8400, -51.533
1518.8600, -51.520
1518.8800, -51.500
1518.9000, -51.471
1518.9200, -51.450
1518.9400, -51.443
1518.9600, -51.418
1518.9800, -51.391
1519.0000, -51.356
1519.0200, -51.332
1519.0400, -51.307
1519.0600, -51.279
1519.0800, -51.227
1519.1000, -51.240
1519.1200, -51.216
1519.1400, -51.179
1519.1600, -51.148
1519.1800, -51.120
1519.2000, -51.104
1519.2200, -51.067
1519.2400, -51.040
1519.2600, -51.018
1519.2800, -50.985
1519.3000, -50.951
1519.3200, -50.929
1519.3400, -50.905
1519.3600, -50.887
1519.3800, -50.872
1519.4000, -50.825
1519.4200, -50.797
1519.4400, -50.778
1519.4600, -50.751
1519.4800, -50.720
1519.5000, -50.682
1519.5200, -50.668
1519.5400, -50.626
1519.5600, -50.584
1519.5800, -50.584
1519.6000, -50.573
1519.6200, -50.539
1519.6400, -50.511
1519.6600, -50.477
1519.6800, -50.449
1519.7000, -50.435
1519.7200, -50.398
1519.7400, -50.378
1519.7600, -50.340
1519.7800, -50.304
1519.8000, -50.285
1519.8200, -50.264
1519.8400, -50.240
1519.8600, -50.212
1519.8800, -50.192
1519.9000, -50.161
1519.9200, -50.134
1519.9400, -50.092
1519.9600, -50.058
1519.9800, -50.033
1520.0000, -50.012
1520.0200, -49.977
1520.0400, -49.940
1520.0600, -49.921
1520.0800, -49.880
1520.1000, -49.824
1520.1200, -49.789
1520.1400, -49.782
1520.1600, -49.747
1520.1800, -49.712
1520.2000, -49.675
1520.2200, -49.628
1520.2400, -49.607
1520.2600, -49.572
1520.2800, -49.550
1520.3000, -49.548
1520.3200, -49.510
1520.3400, -49.457
1520.3600, -49.424
1520.3800, -49.411
1520.4000, -49.370
1520.4200, -49.328
1520.4400, -49.288
1520.4600, -49.274
1520.4800, -49.247
1520.5000, -49.182
1520.5200, -49.139
1520.5400, -49.103
1520.5600, -49.094
1520.5800, -49.088
1520.6000, -49.042
1520.6200, -49.007
