70BCSV 	
// AQ6370B OPTICAL SPECTRUM ANALYZER //                 
25
"CTRWL",1550.000000
"SPAN", 100.000000
"START WL",1500.000000
"STOP WL",1600.000000
"WLFREQ", 0
"REFL",-28.8
"LSCL", 5.0
"RESLN",0.100
"AVG",   1
"SMPLAUTO",      0
"SMPL",       5001
"SMPLINTVL",0.0200
"HIGH1"
"MEAS"
"LSUNT",0
"NMSKH","OFF"
"RESCOR",0
"RESPARM", 9050
"FREQPARM", 9050






"[TRACE DATA]"
1500.0000, -61.708
1500.0200, -61.707
1500.0400, -61.681
1500.0600, -61.707
1500.0800, -61.626
1500.1000, -61.694
1500.1200, -61.691
1500.1400, -61.649
1500.1600, -61.643
1500.1800, -61.640
1500.2000, -61.664
1500.2200, -61.617
1500.2400, -61.605
1500.2600, -61.651
1500.2800, -61.597
1500.3000, -61.599
1500.3200, -61.629
1500.3400, -61.614
1500.3600, -61.658
1500.3800, -61.581
1500.4000, -61.557
1500.4200, -61.567
1500.4400, -61.561
1500.4600, -61.571
1500.4800, -61.602
1500.5000, -61.542
1500.5200, -61.555
1500.5400, -61.544
1500.5600, -61.551
1500.5800, -61.530
1500.6000, -61.557
1500.6200, -61.520
1500.6400, -61.516
1500.6600, -61.552
1500.6800, -61.491
1500.7000, -61.494
1500.7200, -61.477
1500.7400, -61.518
1500.7600, -61.498
1500.7800, -61.468
1500.8000, -61.489
1500.8200, -61.485
1500.8400, -61.451
1500.8600, -61.459
1500.8800, -61.468
1500.9000, -61.432
1500.9200, -61.469
1500.9400, -61.454
1500.9600, -61.398
1500.9800, -61.486
1501.0000, -61.440
1501.0200, -61.386
1501.0400, -61.382
1501.0600, -61.412
1501.0800, -61.455
1501.1000, -61.365
1501.1200, -61.380
1501.1400, -61.389
1501.1600, -61.390
1501.1800, -61.356
1501.2000, -61.372
1501.2200, -61.362
1501.2400, -61.337
1501.2600, -61.403
1501.2800, -61.331
1501.3000, -61.333
1501.3200, -61.362
1501.3400, -61.311
1501.3600, -61.331
1501.3800, -61.299
1501.4000, -61.314
1501.4200, -61.300
1501.4400, -61.270
1501.4600, -61.295
1501.4800, -61.277
1501.5000, -61.253
1501.5200, -61.259
1501.5400, -61.261
1501.5600, -61.268
1501.5800, -61.287
1501.6000, -61.247
1501.6200, -61.200
1501.6400, -61.239
1501.6600, -61.232
1501.6800, -61.250
1501.7000, -61.215
1501.7200, -61.222
1501.7400, -61.244
1501.7600, -61.211
1501.7800, -61.168
1501.8000, -61.222
1501.8200, -61.220
1501.8400, -61.174
1501.8600, -61.198
1501.8800, -61.186
1501.9000, -61.199
1501.9200, -61.158
1501.9400, -61.182
1501.9600, -61.154
1501.9800, -61.157
1502.0000, -61.116
1502.0200, -61.177
1502.0400, -61.139
1502.0600, -61.110
1502.0800, -61.110
1502.1000, -61.114
1502.1200, -61.106
1502.1400, -61.083
1502.1600, -61.089
1502.1800, -61.083
1502.2000, -61.096
1502.2200, -61.086
1502.2400, -61.039
1502.2600, -61.063
1502.2800, -61.055
1502.3000, -61.024
1502.3200, -61.015
1502.3400, -61.025
1502.3600, -61.001
1502.3800, -61.028
1502.4000, -61.017
1502.4200, -60.990
1502.4400, -60.978
1502.4600, -61.001
1502.4800, -60.965
1502.5000, -60.969
1502.5200, -60.968
1502.5400, -60.998
1502.5600, -60.941
1502.5800, -60.945
1502.6000, -60.949
1502.6200, -60.887
1502.6400, -60.964
1502.6600, -60.910
1502.6800, -60.956
1502.7000, -60.924
1502.7200, -60.855
1502.7400, -60.925
1502.7600, -60.929
1502.7800, -60.922
1502.8000, -60.864
1502.8200, -60.880
1502.8400, -60.864
1502.8600, -60.839
1502.8800, -60.890
1502.9000, -60.856
1502.9200, -60.818
1502.9400, -60.847
1502.9600, -60.830
1502.9800, -60.790
1503.0000, -60.823
1503.0200, -60.837
1503.0400, -60.798
1503.0600, -60.831
1503.0800, -60.764
1503.1000, -60.746
1503.1200, -60.747
1503.1400, -60.785
1503.1600, -60.752
1503.1800, -60.746
1503.2000, -60.743
1503.2200, -60.744
1503.2400, -60.748
1503.2600, -60.721
1503.2800, -60.700
1503.3000, -60.722
1503.3200, -60.691
1503.3400, -60.694
1503.3600, -60.717
1503.3800, -60.684
1503.4000, -60.661
1503.4200, -60.655
1503.4400, -60.693
1503.4600, -60.671
1503.4800, -60.659
1503.5000, -60.600
1503.5200, -60.632
1503.5400, -60.659
1503.5600, -60.582
1503.5800, -60.620
1503.6000, -60.605
1503.6200, -60.589
1503.6400, -60.605
1503.6600, -60.597
1503.6800, -60.594
1503.7000, -60.573
1503.7200, -60.582
1503.7400, -60.569
1503.7600, -60.555
1503.7800, -60.556
1503.8000, -60.540
1503.8200, -60.539
1503.8400, -60.522
1503.8600, -60.536
1503.8800, -60.526
1503.9000, -60.517
1503.9200, -60.505
1503.9400, -60.500
1503.9600, -60.491
1503.9800, -60.458
1504.0000, -60.485
1504.0200, -60.491
1504.0400, -60.451
1504.0600, -60.487
1504.0800, -60.450
1504.1000, -60.453
1504.1200, -60.391
1504.1400, -60.435
1504.1600, -60.431
1504.1800, -60.419
1504.2000, -60.405
1504.2200, -60.401
1504.2400, -60.381
1504.2600, -60.378
1504.2800, -60.380
1504.3000, -60.345
1504.3200, -60.350
1504.3400, -60.343
1504.3600, -60.330
1504.3800, -60.360
1504.4000, -60.325
1504.4200, -60.311
1504.4400, -60.340
1504.4600, -60.291
1504.4800, -60.302
1504.5000, -60.261
1504.5200, -60.279
1504.5400, -60.261
1504.5600, -60.245
1504.5800, -60.268
1504.6000, -60.241
1504.6200, -60.227
1504.6400, -60.229
1504.6600, -60.249
1504.6800, -60.219
1504.7000, -60.215
1504.7200, -60.224
1504.7400, -60.227
1504.7600, -60.206
1504.7800, -60.198
1504.8000, -60.174
1504.8200, -60.190
1504.8400, -60.173
1504.8600, -60.167
1504.8800, -60.131
1504.9000, -60.148
1504.9200, -60.131
1504.9400, -60.123
1504.9600, -60.126
1504.9800, -60.114
1505.0000, -60.106
1505.0200, -60.072
1505.0400, -60.101
1505.0600, -60.104
1505.0800, -60.063
1505.1000, -60.073
1505.1200, -60.024
1505.1400, -60.057
1505.1600, -60.053
1505.1800, -60.022
1505.2000, -60.051
1505.2200, -60.004
1505.2400, -59.993
1505.2600, -60.004
1505.2800, -60.008
1505.3000, -59.998
1505.3200, -59.977
1505.3400, -59.958
1505.3600, -59.972
1505.3800, -59.956
1505.4000, -59.950
1505.4200, -59.961
1505.4400, -59.934
1505.4600, -59.925
1505.4800, -59.888
1505.5000, -59.917
1505.5200, -59.889
1505.5400, -59.875
1505.5600, -59.889
1505.5800, -59.872
1505.6000, -59.869
1505.6200, -59.901
1505.6400, -59.866
1505.6600, -59.861
1505.6800, -59.866
1505.7000, -59.805
1505.7200, -59.811
1505.7400, -59.807
1505.7600, -59.802
1505.7800, -59.826
1505.8000, -59.806
1505.8200, -59.781
1505.8400, -59.792
1505.8600, -59.767
1505.8800, -59.774
1505.9000, -59.744
1505.9200, -59.750
1505.9400, -59.763
1505.9600, -59.712
1505.9800, -59.712
1506.0000, -59.723
1506.0200, -59.717
1506.0400, -59.695
1506.0600, -59.690
1506.0800, -59.674
1506.1000, -59.691
1506.1200, -59.663
1506.1400, -59.660
1506.1600, -59.676
1506.1800, -59.658
1506.2000, -59.582
1506.2200, -59.638
1506.2400, -59.613
1506.2600, -59.586
1506.2800, -59.597
1506.3000, -59.598
1506.3200, -59.589
1506.3400, -59.578
1506.3600, -59.555
1506.3800, -59.573
1506.4000, -59.584
1506.4200, -59.554
1506.4400, -59.512
1506.4600, -59.515
1506.4800, -59.532
1506.5000, -59.523
1506.5200, -59.526
1506.5400, -59.488
1506.5600, -59.480
1506.5800, -59.476
1506.6000, -59.484
1506.6200, -59.477
1506.6400, -59.462
1506.6600, -59.444
1506.6800, -59.457
1506.7000, -59.430
1506.7200, -59.437
1506.7400, -59.411
1506.7600, -59.433
1506.7800, -59.408
1506.8000, -59.403
1506.8200, -59.393
1506.8400, -59.373
1506.8600, -59.400
1506.8800, -59.363
1506.9000, -59.377
1506.9200, -59.357
1506.9400, -59.348
1506.9600, -59.332
1506.9800, -59.320
1507.0000, -59.328
1507.0200, -59.309
1507.0400, -59.288
1507.0600, -59.291
1507.0800, -59.305
1507.1000, -59.281
1507.1200, -59.256
1507.1400, -59.290
1507.1600, -59.227
1507.1800, -59.241
1507.2000, -59.230
1507.2200, -59.211
1507.2400, -59.245
1507.2600, -59.198
1507.2800, -59.214
1507.3000, -59.227
1507.3200, -59.158
1507.3400, -59.183
1507.3600, -59.165
1507.3800, -59.163
1507.4000, -59.145
1507.4200, -59.132
1507.4400, -59.108
1507.4600, -59.146
1507.4800, -59.121
1507.5000, -59.134
1507.5200, -59.103
1507.5400, -59.094
1507.5600, -59.093
1507.5800, -59.110
1507.6000, -59.065
1507.6200, -59.070
1507.6400, -59.049
1507.6600, -59.056
1507.6800, -59.029
1507.7000, -59.028
1507.7200, -58.999
1507.7400, -59.014
1507.7600, -59.003
1507.7800, -59.003
1507.8000, -58.996
1507.8200, -58.985
1507.8400, -58.984
1507.8600, -58.951
1507.8800, -58.944
1507.9000, -58.949
1507.9200, -58.935
1507.9400, -58.924
1507.9600, -58.907
1507.9800, -58.913
1508.0000, -58.892
1508.0200, -58.889
1508.0400, -58.887
1508.0600, -58.877
1508.0800, -58.872
1508.1000, -58.857
1508.1200, -58.838
1508.1400, -58.843
1508.1600, -58.840
1508.1800, -58.838
1508.2000, -58.787
1508.2200, -58.795
1508.2400, -58.798
1508.2600, -58.795
1508.2800, -58.792
1508.3000, -58.778
1508.3200, -58.786
1508.3400, -58.765
1508.3600, -58.753
1508.3800, -58.751
1508.4000, -58.727
1508.4200, -58.724
1508.4400, -58.732
1508.4600, -58.706
1508.4800, -58.698
1508.5000, -58.729
1508.5200, -58.668
1508.5400, -58.694
1508.5600, -58.673
1508.5800, -58.647
1508.6000, -58.662
1508.6200, -58.644
1508.6400, -58.649
1508.6600, -58.617
1508.6800, -58.620
1508.7000, -58.611
1508.7200, -58.587
1508.7400, -58.595
1508.7600, -58.585
1508.7800, -58.585
1508.8000, -58.560
1508.8200, -58.585
1508.8400, -58.559
1508.8600, -58.552
1508.8800, -58.520
1508.9000, -58.538
1508.9200, -58.493
1508.9400, -58.492
1508.9600, -58.473
1508.9800, -58.498
1509.0000, -58.485
1509.0200, -58.449
1509.0400, -58.474
1509.0600, -58.450
1509.0800, -58.440
1509.1000, -58.445
1509.1200, -58.434
1509.1400, -58.410
1509.1600, -58.394
1509.1800, -58.395
1509.2000, -58.391
1509.2200, -58.382
1509.2400, -58.380
1509.2600, -58.338
1509.2800, -58.328
1509.3000, -58.346
1509.3200, -58.313
1509.3400, -58.311
1509.3600, -58.314
1509.3800, -58.293
1509.4000, -58.284
1509.4200, -58.287
1509.4400, -58.277
1509.4600, -58.258
1509.4800, -58.254
1509.5000, -58.222
1509.5200, -58.244
1509.5400, -58.235
1509.5600, -58.226
1509.5800, -58.210
1509.6000, -58.204
1509.6200, -58.174
1509.6400, -58.192
1509.6600, -58.182
1509.6800, -58.186
1509.7000, -58.134
1509.7200, -58.165
1509.7400, -58.150
1509.7600, -58.126
1509.7800, -58.121
1509.8000, -58.114
1509.8200, -58.137
1509.8400, -58.082
1509.8600, -58.082
1509.8800, -58.066
1509.9000, -58.072
1509.9200, -58.048
1509.9400, -58.052
1509.9600, -58.030
1509.9800, -58.021
1510.0000, -58.008
1510.0200, -58.027
1510.0400, -58.000
1510.0600, -57.985
1510.0800, -57.981
1510.1000, -57.964
1510.1200, -57.951
1510.1400, -57.951
1510.1600, -57.934
1510.1800, -57.949
1510.2000, -57.911
1510.2200, -57.900
1510.2400, -57.882
1510.2600, -57.883
1510.2800, -57.855
1510.3000, -57.877
1510.3200, -57.860
1510.3400, -57.847
1510.3600, -57.846
1510.3800, -57.824
1510.4000, -57.793
1510.4200, -57.783
1510.4400, -57.797
1510.4600, -57.771
1510.4800, -57.766
1510.5000, -57.745
1510.5200, -57.756
1510.5400, -57.725
1510.5600, -57.738
1510.5800, -57.725
1510.6000, -57.717
1510.6200, -57.704
1510.6400, -57.677
1510.6600, -57.661
1510.6800, -57.671
1510.7000, -57.659
1510.7200, -57.650
1510.7400, -57.644
1510.7600, -57.615
1510.7800, -57.601
1510.8000, -57.601
1510.8200, -57.587
1510.8400, -57.563
1510.8600, -57.559
1510.8800, -57.557
1510.9000, -57.564
1510.9200, -57.528
1510.9400, -57.523
1510.9600, -57.505
1510.9800, -57.491
1511.0000, -57.497
1511.0200, -57.473
1511.0400, -57.461
1511.0600, -57.459
1511.0800, -57.435
1511.1000, -57.435
1511.1200, -57.422
1511.1400, -57.407
1511.1600, -57.400
1511.1800, -57.390
1511.2000, -57.382
1511.2200, -57.348
1511.2400, -57.359
1511.2600, -57.329
1511.2800, -57.340
1511.3000, -57.336
1511.3200, -57.295
1511.3400, -57.308
1511.3600, -57.283
1511.3800, -57.273
1511.4000, -57.265
1511.4200, -57.254
1511.4400, -57.237
1511.4600, -57.227
1511.4800, -57.216
1511.5000, -57.219
1511.5200, -57.214
1511.5400, -57.193
1511.5600, -57.154
1511.5800, -57.174
1511.6000, -57.149
1511.6200, -57.143
1511.6400, -57.135
1511.6600, -57.136
1511.6800, -57.106
1511.7000, -57.101
1511.7200, -57.097
1511.7400, -57.078
1511.7600, -57.070
1511.7800, -57.054
1511.8000, -57.032
1511.8200, -57.029
1511.8400, -57.023
1511.8600, -56.990
1511.8800, -56.999
1511.9000, -56.984
1511.9200, -56.971
1511.9400, -56.941
1511.9600, -56.945
1511.9800, -56.929
1512.0000, -56.905
1512.0200, -56.909
1512.0400, -56.897
1512.0600, -56.875
1512.0800, -56.877
1512.1000, -56.866
1512.1200, -56.841
1512.1400, -56.846
1512.1600, -56.828
1512.1800, -56.814
1512.2000, -56.794
1512.2200, -56.804
1512.2400, -56.797
1512.2600, -56.781
1512.2800, -56.772
1512.3000, -56.747
1512.3200, -56.737
1512.3400, -56.733
1512.3600, -56.712
1512.3800, -56.704
1512.4000, -56.714
1512.4200, -56.691
1512.4400, -56.688
1512.4600, -56.665
1512.4800, -56.648
1512.5000, -56.643
1512.5200, -56.624
1512.5400, -56.618
1512.5600, -56.613
1512.5800, -56.599
1512.6000, -56.581
1512.6200, -56.577
1512.6400, -56.564
1512.6600, -56.545
1512.6800, -56.528
1512.7000, -56.524
1512.7200, -56.515
1512.7400, -56.507
1512.7600, -56.490
1512.7800, -56.464
1512.8000, -56.472
1512.8200, -56.446
1512.8400, -56.440
1512.8600, -56.436
1512.8800, -56.411
1512.9000, -56.402
1512.9200, -56.398
1512.9400, -56.372
1512.9600, -56.363
1512.9800, -56.349
1513.0000, -56.345
1513.0200, -56.318
1513.0400, -56.332
1513.0600, -56.310
1513.0800, -56.285
1513.1000, -56.280
1513.1200, -56.263
1513.1400, -56.247
1513.1600, -56.242
1513.1800, -56.246
1513.2000, -56.238
1513.2200, -56.206
1513.2400, -56.200
1513.2600, -56.197
1513.2800, -56.177
1513.3000, -56.168
1513.3200, -56.158
1513.3400, -56.140
1513.3600, -56.125
1513.3800, -56.118
1513.4000, -56.108
1513.4200, -56.086
1513.4400, -56.079
1513.4600, -56.072
1513.4800, -56.051
1513.5000, -56.046
1513.5200, -56.040
1513.5400, -56.028
1513.5600, -56.007
1513.5800, -56.000
1513.6000, -55.982
1513.6200, -55.980
1513.6400, -55.957
1513.6600, -55.939
1513.6800, -55.936
1513.7000, -55.927
1513.7200, -55.908
1513.7400, -55.892
1513.7600, -55.878
1513.7800, -55.887
1513.8000, -55.857
1513.8200, -55.844
1513.8400, -55.829
1513.8600, -55.808
1513.8800, -55.799
1513.9000, -55.781
1513.9200, -55.773
1513.9400, -55.778
1513.9600, -55.758
1513.9800, -55.738
1514.0000, -55.720
1514.0200, -55.717
1514.0400, -55.700
1514.0600, -55.694
1514.0800, -55.672
1514.1000, -55.646
1514.1200, -55.644
1514.1400, -55.648
1514.1600, -55.626
1514.1800, -55.623
1514.2000, -55.605
1514.2200, -55.594
1514.2400, -55.588
1514.2600, -55.560
1514.2800, -55.553
1514.3000, -55.542
1514.3200, -55.521
1514.3400, -55.515
1514.3600, -55.499
1514.3800, -55.493
1514.4000, -55.471
1514.4200, -55.464
1514.4400, -55.444
1514.4600, -55.433
1514.4800, -55.410
1514.5000, -55.413
1514.5200, -55.387
1514.5400, -55.371
1514.5600, -55.352
1514.5800, -55.340
1514.6000, -55.331
1514.6200, -55.325
1514.6400, -55.319
1514.6600, -55.301
1514.6800, -55.278
1514.7000, -55.285
1514.7200, -55.253
1514.7400, -55.242
1514.7600, -55.232
1514.7800, -55.204
1514.8000, -55.192
1514.8200, -55.186
1514.8400, -55.164
1514.8600, -55.163
1514.8800, -55.157
1514.9000, -55.132
1514.9200, -55.114
1514.9400, -55.104
1514.9600, -55.087
1514.9800, -55.076
1515.0000, -55.066
1515.0200, -55.042
1515.0400, -55.016
1515.0600, -54.992
1515.0800, -55.008
1515.1000, -54.992
1515.1200, -54.979
1515.1400, -54.970
1515.1600, -54.957
1515.1800, -54.943
1515.2000, -54.918
1515.2200, -54.908
1515.2400, -54.894
1515.2600, -54.881
1515.2800, -54.855
1515.3000, -54.851
1515.3200, -54.815
1515.3400, -54.828
1515.3600, -54.797
1515.3800, -54.799
1515.4000, -54.782
1515.4200, -54.769
1515.4400, -54.743
1515.4600, -54.740
1515.4800, -54.720
1515.5000, -54.693
1515.5200, -54.672
1515.5400, -54.667
1515.5600, -54.662
1515.5800, -54.653
1515.6000, -54.643
1515.6200, -54.609
1515.6400, -54.609
1515.6600, -54.596
1515.6800, -54.579
1515.7000, -54.560
1515.7200, -54.539
1515.7400, -54.539
1515.7600, -54.510
1515.7800, -54.489
1515.8000, -54.473
1515.8200, -54.467
1515.8400, -54.454
1515.8600, -54.429
1515.8800, -54.432
1515.9000, -54.397
1515.9200, -54.387
1515.9400, -54.375
1515.9600, -54.351
1515.9800, -54.331
1516.0000, -54.329
1516.0200, -54.327
1516.0400, -54.313
1516.0600, -54.266
1516.0800, -54.263
1516.1000, -54.253
1516.1200, -54.238
1516.1400, -54.212
1516.1600, -54.208
1516.1800, -54.185
1516.2000, -54.165
1516.2200, -54.160
1516.2400, -54.140
1516.2600, -54.120
1516.2800, -54.120
1516.3000, -54.100
1516.3200, -54.065
1516.3400, -54.061
1516.3600, -54.042
1516.3800, -54.027
1516.4000, -54.014
1516.4200, -53.995
1516.4400, -53.971
1516.4600, -53.948
1516.4800, -53.933
1516.5000, -53.916
1516.5200, -53.916
1516.5400, -53.894
1516.5600, -53.870
1516.5800, -53.860
1516.6000, -53.849
1516.6200, -53.818
1516.6400, -53.802
1516.6600, -53.796
1516.6800, -53.759
1516.7000, -53.755
1516.7200, -53.731
1516.7400, -53.706
1516.7600, -53.712
1516.7800, -53.689
1516.8000, -53.667
1516.8200, -53.645
1516.8400, -53.641
1516.8600, -53.618
1516.8800, -53.589
1516.9000, -53.576
1516.9200, -53.537
1516.9400, -53.512
1516.9600, -53.536
1516.9800, -53.527
1517.0000, -53.493
1517.0200, -53.475
1517.0400, -53.457
1517.0600, -53.443
1517.0800, -53.417
1517.1000, -53.403
1517.1200, -53.385
1517.1400, -53.355
1517.1600, -53.343
1517.1800, -53.323
1517.2000, -53.318
1517.2200, -53.301
1517.2400, -53.281
1517.2600, -53.253
1517.2800, -53.256
1517.3000, -53.221
1517.3200, -53.215
1517.3400, -53.200
1517.3600, -53.164
1517.3800, -53.140
1517.4000, -53.120
1517.4200, -53.086
1517.4400, -53.103
1517.4600, -53.078
1517.4800, -53.058
1517.5000, -53.026
1517.5200, -53.005
1517.5400, -52.993
1517.5600, -52.962
1517.5800, -52.951
1517.6000, -52.938
1517.6200, -52.902
1517.6400, -52.913
1517.6600, -52.864
1517.6800, -52.834
1517.7000, -52.831
1517.7200, -52.816
1517.7400, -52.787
1517.7600, -52.774
1517.7800, -52.750
1517.8000, -52.723
1517.8200, -52.701
1517.8400, -52.694
1517.8600, -52.672
1517.8800, -52.631
1517.9000, -52.638
1517.9200, -52.629
1517.9400, -52.589
1517.9600, -52.561
1517.9800, -52.548
1518.0000, -52.535
1518.0200, -52.517
1518.0400, -52.489
1518.0600, -52.473
1518.0800, -52.432
1518.1000, -52.422
1518.1200, -52.403
1518.1400, -52.385
1518.1600, -52.362
1518.1800, -52.341
1518.2000, -52.314
1518.2200, -52.319
1518.2400, -52.278
1518.2600, -52.258
1518.2800, -52.238
1518.3000, -52.217
1518.3200, -52.186
1518.3400, -52.165
1518.3600, -52.140
1518.3800, -52.130
1518.4000, -52.115
1518.4200, -52.096
1518.4400, -52.049
1518.4600, -52.034
1518.4800, -52.015
1518.5000, -51.992
1518.5200, -51.953
1518.5400, -51.945
1518.5600, -51.914
1518.5800, -51.897
1518.6000, -51.867
1518.6200, -51.835
1518.6400, -51.822
1518.6600, -51.812
1518.6800, -51.786
1518.7000, -51.756
1518.7200, -51.737
1518.7400, -51.704
1518.7600, -51.682
1518.7800, -51.657
1518.8000, -51.639
1518.8200, -51.599
1518.8400, -51.608
1518.8600, -51.594
1518.8800, -51.567
1518.9000, -51.524
1518.9200, -51.504
1518.9400, -51.468
1518.9600, -51.444
1518.9800, -51.433
1519.0000, -51.412
1519.0200, -51.371
1519.0400, -51.358
1519.0600, -51.336
1519.0800, -51.316
1519.1000, -51.281
1519.1200, -51.257
1519.1400, -51.216
1519.1600, -51.204
1519.1800, -51.185
1519.2000, -51.158
1519.2200, -51.135
1519.2400, -51.107
1519.2600, -51.074
1519.2800, -51.042
1519.3000, -51.010
1519.3200, -51.002
1519.3400, -50.976
1519.3600, -50.956
1519.3800, -50.903
1519.4000, -50.885
1519.4200, -50.865
1519.4400, -50.833
1519.4600, -50.806
1519.4800, -50.780
1519.5000, -50.751
1519.5200, -50.732
1519.5400, -50.694
1519.5600, -50.654
1519.5800, -50.648
1519.6000, -50.628
1519.6200, -50.583
1519.6400, -50.557
1519.6600, -50.535
1519.6800, -50.512
1519.7000, -50.480
1519.7200, -50.452
1519.7400, -50.407
1519.7600, -50.360
1519.7800, -50.363
1519.8000, -50.363
1519.8200, -50.337
1519.8400, -50.276
1519.8600, -50.257
1519.8800, -50.234
1519.9000, -50.196
1519.9200, -50.176
1519.9400, -50.146
1519.9600, -50.104
1519.9800, -50.078
1520.0000, -50.051
1520.0200, -50.027
1520.0400, -50.003
1520.0600, -49.974
1520.0800, -49.925
1520.1000, -49.894
1520.1200, -49.873
1520.1400, -49.843
1520.1600, -49.813
1520.1800, -49.782
1520.2000, -49.745
1520.2200, -49.715
1520.2400, -49.690
1520.2600, -49.653
1520.2800, -49.622
1520.3000, -49.607
1520.3200, -49.561
1520.3400, -49.532
1520.3600, -49.491
1520.3800, -49.462
1520.4000, -49.413
1520.4200, -49.381
1520.4400, -49.361
1520.4600, -49.355
1520.4800, -49.298
1520.5000, -49.246
1520.5200, -49.224
1520.5400, -49.208
1520.5600, -49.173
1520.5800, -49.137
1520.6000, -49.097
1520.6200, -49.060
