70BCSV 	
// AQ6370B OPTICAL SPECTRUM ANALYZER //                 
25
"CTRWL",1550.000000
"SPAN", 100.000000
"START WL",1500.000000
"STOP WL",1600.000000
"WLFREQ", 0
"REFL",-28.8
"LSCL", 5.0
"RESLN",0.100
"AVG",   1
"SMPLAUTO",      0
"SMPL",       5001
"SMPLINTVL",0.0200
"HIGH1"
"MEAS"
"LSUNT",0
"NMSKH","OFF"
"RESCOR",0
"RESPARM", 9050
"FREQPARM", 9050






"[TRACE DATA]"
1500.0000, -61.653
1500.0200, -61.628
1500.0400, -61.621
1500.0600, -61.667
1500.0800, -61.609
1500.1000, -61.580
1500.1200, -61.612
1500.1400, -61.608
1500.1600, -61.610
1500.1800, -61.612
1500.2000, -61.561
1500.2200, -61.595
1500.2400, -61.549
1500.2600, -61.588
1500.2800, -61.563
1500.3000, -61.544
1500.3200, -61.558
1500.3400, -61.533
1500.3600, -61.526
1500.3800, -61.533
1500.4000, -61.541
1500.4200, -61.554
1500.4400, -61.511
1500.4600, -61.532
1500.4800, -61.521
1500.5000, -61.520
1500.5200, -61.452
1500.5400, -61.474
1500.5600, -61.513
1500.5800, -61.511
1500.6000, -61.468
1500.6200, -61.472
1500.6400, -61.448
1500.6600, -61.469
1500.6800, -61.472
1500.7000, -61.458
1500.7200, -61.444
1500.7400, -61.438
1500.7600, -61.449
1500.7800, -61.433
1500.8000, -61.425
1500.8200, -61.473
1500.8400, -61.379
1500.8600, -61.470
1500.8800, -61.426
1500.9000, -61.412
1500.9200, -61.401
1500.9400, -61.389
1500.9600, -61.410
1500.9800, -61.392
1501.0000, -61.382
1501.0200, -61.388
1501.0400, -61.344
1501.0600, -61.341
1501.0800, -61.354
1501.1000, -61.328
1501.1200, -61.336
1501.1400, -61.333
1501.1600, -61.331
1501.1800, -61.298
1501.2000, -61.309
1501.2200, -61.294
1501.2400, -61.310
1501.2600, -61.276
1501.2800, -61.274
1501.3000, -61.303
1501.3200, -61.275
1501.3400, -61.260
1501.3600, -61.267
1501.3800, -61.274
1501.4000, -61.239
1501.4200, -61.246
1501.4400, -61.236
1501.4600, -61.221
1501.4800, -61.205
1501.5000, -61.228
1501.5200, -61.195
1501.5400, -61.208
1501.5600, -61.213
1501.5800, -61.209
1501.6000, -61.186
1501.6200, -61.189
1501.6400, -61.198
1501.6600, -61.194
1501.6800, -61.159
1501.7000, -61.176
1501.7200, -61.170
1501.7400, -61.158
1501.7600, -61.145
1501.7800, -61.146
1501.8000, -61.176
1501.8200, -61.150
1501.8400, -61.131
1501.8600, -61.174
1501.8800, -61.140
1501.9000, -61.131
1501.9200, -61.128
1501.9400, -61.114
1501.9600, -61.087
1501.9800, -61.094
1502.0000, -61.063
1502.0200, -61.057
1502.0400, -61.067
1502.0600, -61.066
1502.0800, -61.057
1502.1000, -61.042
1502.1200, -61.028
1502.1400, -61.039
1502.1600, -61.033
1502.1800, -61.023
1502.2000, -61.011
1502.2200, -61.002
1502.2400, -60.999
1502.2600, -61.010
1502.2800, -61.005
1502.3000, -60.969
1502.3200, -60.964
1502.3400, -60.969
1502.3600, -60.956
1502.3800, -60.966
1502.4000, -60.951
1502.4200, -60.936
1502.4400, -60.933
1502.4600, -60.929
1502.4800, -60.891
1502.5000, -60.953
1502.5200, -60.914
1502.5400, -60.907
1502.5600, -60.910
1502.5800, -60.895
1502.6000, -60.874
1502.6200, -60.903
1502.6400, -60.875
1502.6600, -60.867
1502.6800, -60.868
1502.7000, -60.833
1502.7200, -60.853
1502.7400, -60.849
1502.7600, -60.855
1502.7800, -60.829
1502.8000, -60.853
1502.8200, -60.834
1502.8400, -60.817
1502.8600, -60.791
1502.8800, -60.789
1502.9000, -60.807
1502.9200, -60.775
1502.9400, -60.757
1502.9600, -60.764
1502.9800, -60.741
1503.0000, -60.738
1503.0200, -60.768
1503.0400, -60.748
1503.0600, -60.713
1503.0800, -60.702
1503.1000, -60.744
1503.1200, -60.686
1503.1400, -60.700
1503.1600, -60.706
1503.1800, -60.692
1503.2000, -60.693
1503.2200, -60.655
1503.2400, -60.658
1503.2600, -60.656
1503.2800, -60.646
1503.3000, -60.663
1503.3200, -60.647
1503.3400, -60.639
1503.3600, -60.621
1503.3800, -60.612
1503.4000, -60.613
1503.4200, -60.595
1503.4400, -60.612
1503.4600, -60.586
1503.4800, -60.617
1503.5000, -60.594
1503.5200, -60.569
1503.5400, -60.581
1503.5600, -60.567
1503.5800, -60.567
1503.6000, -60.584
1503.6200, -60.528
1503.6400, -60.549
1503.6600, -60.554
1503.6800, -60.493
1503.7000, -60.525
1503.7200, -60.536
1503.7400, -60.511
1503.7600, -60.513
1503.7800, -60.518
1503.8000, -60.462
1503.8200, -60.504
1503.8400, -60.477
1503.8600, -60.490
1503.8800, -60.464
1503.9000, -60.454
1503.9200, -60.418
1503.9400, -60.447
1503.9600, -60.434
1503.9800, -60.408
1504.0000, -60.415
1504.0200, -60.440
1504.0400, -60.403
1504.0600, -60.437
1504.0800, -60.375
1504.1000, -60.365
1504.1200, -60.373
1504.1400, -60.363
1504.1600, -60.358
1504.1800, -60.350
1504.2000, -60.287
1504.2200, -60.327
1504.2400, -60.336
1504.2600, -60.319
1504.2800, -60.309
1504.3000, -60.276
1504.3200, -60.308
1504.3400, -60.265
1504.3600, -60.309
1504.3800, -60.266
1504.4000, -60.266
1504.4200, -60.268
1504.4400, -60.260
1504.4600, -60.229
1504.4800, -60.238
1504.5000, -60.242
1504.5200, -60.212
1504.5400, -60.189
1504.5600, -60.240
1504.5800, -60.214
1504.6000, -60.188
1504.6200, -60.160
1504.6400, -60.193
1504.6600, -60.165
1504.6800, -60.168
1504.7000, -60.155
1504.7200, -60.167
1504.7400, -60.152
1504.7600, -60.148
1504.7800, -60.146
1504.8000, -60.145
1504.8200, -60.115
1504.8400, -60.101
1504.8600, -60.135
1504.8800, -60.069
1504.9000, -60.083
1504.9200, -60.070
1504.9400, -60.072
1504.9600, -60.074
1504.9800, -60.050
1505.0000, -60.046
1505.0200, -60.041
1505.0400, -60.012
1505.0600, -60.013
1505.0800, -59.999
1505.1000, -60.014
1505.1200, -59.988
1505.1400, -60.005
1505.1600, -59.963
1505.1800, -59.963
1505.2000, -59.967
1505.2200, -59.983
1505.2400, -59.956
1505.2600, -59.946
1505.2800, -59.926
1505.3000, -59.909
1505.3200, -59.910
1505.3400, -59.912
1505.3600, -59.889
1505.3800, -59.883
1505.4000, -59.871
1505.4200, -59.873
1505.4400, -59.888
1505.4600, -59.890
1505.4800, -59.834
1505.5000, -59.847
1505.5200, -59.831
1505.5400, -59.831
1505.5600, -59.834
1505.5800, -59.819
1505.6000, -59.808
1505.6200, -59.800
1505.6400, -59.801
1505.6600, -59.796
1505.6800, -59.788
1505.7000, -59.775
1505.7200, -59.767
1505.7400, -59.771
1505.7600, -59.763
1505.7800, -59.766
1505.8000, -59.740
1505.8200, -59.723
1505.8400, -59.715
1505.8600, -59.715
1505.8800, -59.673
1505.9000, -59.724
1505.9200, -59.671
1505.9400, -59.678
1505.9600, -59.673
1505.9800, -59.644
1506.0000, -59.646
1506.0200, -59.648
1506.0400, -59.661
1506.0600, -59.617
1506.0800, -59.603
1506.1000, -59.608
1506.1200, -59.606
1506.1400, -59.588
1506.1600, -59.598
1506.1800, -59.607
1506.2000, -59.549
1506.2200, -59.568
1506.2400, -59.545
1506.2600, -59.539
1506.2800, -59.555
1506.3000, -59.536
1506.3200, -59.509
1506.3400, -59.516
1506.3600, -59.526
1506.3800, -59.512
1506.4000, -59.503
1506.4200, -59.492
1506.4400, -59.476
1506.4600, -59.470
1506.4800, -59.463
1506.5000, -59.454
1506.5200, -59.453
1506.5400, -59.425
1506.5600, -59.436
1506.5800, -59.436
1506.6000, -59.430
1506.6200, -59.422
1506.6400, -59.430
1506.6600, -59.396
1506.6800, -59.372
1506.7000, -59.372
1506.7200, -59.377
1506.7400, -59.377
1506.7600, -59.366
1506.7800, -59.360
1506.8000, -59.323
1506.8200, -59.330
1506.8400, -59.299
1506.8600, -59.321
1506.8800, -59.311
1506.9000, -59.303
1506.9200, -59.280
1506.9400, -59.271
1506.9600, -59.265
1506.9800, -59.259
1507.0000, -59.257
1507.0200, -59.238
1507.0400, -59.242
1507.0600, -59.210
1507.0800, -59.228
1507.1000, -59.193
1507.1200, -59.194
1507.1400, -59.198
1507.1600, -59.181
1507.1800, -59.177
1507.2000, -59.155
1507.2200, -59.156
1507.2400, -59.174
1507.2600, -59.159
1507.2800, -59.140
1507.3000, -59.137
1507.3200, -59.121
1507.3400, -59.128
1507.3600, -59.108
1507.3800, -59.113
1507.4000, -59.088
1507.4200, -59.080
1507.4400, -59.072
1507.4600, -59.057
1507.4800, -59.075
1507.5000, -59.059
1507.5200, -59.044
1507.5400, -59.037
1507.5600, -59.025
1507.5800, -59.009
1507.6000, -59.007
1507.6200, -59.012
1507.6400, -58.987
1507.6600, -58.988
1507.6800, -58.992
1507.7000, -58.970
1507.7200, -58.954
1507.7400, -58.956
1507.7600, -58.961
1507.7800, -58.892
1507.8000, -58.904
1507.8200, -58.900
1507.8400, -58.910
1507.8600, -58.927
1507.8800, -58.869
1507.9000, -58.880
1507.9200, -58.856
1507.9400, -58.864
1507.9600, -58.866
1507.9800, -58.837
1508.0000, -58.840
1508.0200, -58.818
1508.0400, -58.816
1508.0600, -58.795
1508.0800, -58.808
1508.1000, -58.798
1508.1200, -58.787
1508.1400, -58.765
1508.1600, -58.763
1508.1800, -58.759
1508.2000, -58.745
1508.2200, -58.732
1508.2400, -58.741
1508.2600, -58.729
1508.2800, -58.745
1508.3000, -58.719
1508.3200, -58.716
1508.3400, -58.730
1508.3600, -58.690
1508.3800, -58.707
1508.4000, -58.665
1508.4200, -58.671
1508.4400, -58.669
1508.4600, -58.640
1508.4800, -58.640
1508.5000, -58.643
1508.5200, -58.628
1508.5400, -58.631
1508.5600, -58.631
1508.5800, -58.584
1508.6000, -58.605
1508.6200, -58.580
1508.6400, -58.570
1508.6600, -58.568
1508.6800, -58.555
1508.7000, -58.549
1508.7200, -58.540
1508.7400, -58.549
1508.7600, -58.528
1508.7800, -58.508
1508.8000, -58.509
1508.8200, -58.507
1508.8400, -58.494
1508.8600, -58.467
1508.8800, -58.473
1508.9000, -58.493
1508.9200, -58.429
1508.9400, -58.441
1508.9600, -58.420
1508.9800, -58.412
1509.0000, -58.405
1509.0200, -58.399
1509.0400, -58.398
1509.0600, -58.405
1509.0800, -58.377
1509.1000, -58.355
1509.1200, -58.377
1509.1400, -58.350
1509.1600, -58.330
1509.1800, -58.319
1509.2000, -58.303
1509.2200, -58.318
1509.2400, -58.302
1509.2600, -58.297
1509.2800, -58.293
1509.3000, -58.259
1509.3200, -58.267
1509.3400, -58.255
1509.3600, -58.249
1509.3800, -58.257
1509.4000, -58.230
1509.4200, -58.241
1509.4400, -58.197
1509.4600, -58.220
1509.4800, -58.193
1509.5000, -58.188
1509.5200, -58.187
1509.5400, -58.184
1509.5600, -58.183
1509.5800, -58.154
1509.6000, -58.158
1509.6200, -58.125
1509.6400, -58.122
1509.6600, -58.092
1509.6800, -58.113
1509.7000, -58.088
1509.7200, -58.075
1509.7400, -58.089
1509.7600, -58.064
1509.7800, -58.073
1509.8000, -58.047
1509.8200, -58.029
1509.8400, -58.032
1509.8600, -58.024
1509.8800, -58.002
1509.9000, -57.984
1509.9200, -57.988
1509.9400, -57.974
1509.9600, -57.963
1509.9800, -57.965
1510.0000, -57.971
1510.0200, -57.951
1510.0400, -57.955
1510.0600, -57.916
1510.0800, -57.932
1510.1000, -57.915
1510.1200, -57.896
1510.1400, -57.876
1510.1600, -57.878
1510.1800, -57.867
1510.2000, -57.851
1510.2200, -57.854
1510.2400, -57.834
1510.2600, -57.833
1510.2800, -57.807
1510.3000, -57.806
1510.3200, -57.799
1510.3400, -57.792
1510.3600, -57.779
1510.3800, -57.773
1510.4000, -57.743
1510.4200, -57.750
1510.4400, -57.744
1510.4600, -57.732
1510.4800, -57.712
1510.5000, -57.704
1510.5200, -57.704
1510.5400, -57.683
1510.5600, -57.655
1510.5800, -57.657
1510.6000, -57.651
1510.6200, -57.620
1510.6400, -57.624
1510.6600, -57.612
1510.6800, -57.611
1510.7000, -57.606
1510.7200, -57.580
1510.7400, -57.564
1510.7600, -57.558
1510.7800, -57.547
1510.8000, -57.536
1510.8200, -57.526
1510.8400, -57.501
1510.8600, -57.489
1510.8800, -57.479
1510.9000, -57.467
1510.9200, -57.461
1510.9400, -57.460
1510.9600, -57.455
1510.9800, -57.443
1511.0000, -57.420
1511.0200, -57.403
1511.0400, -57.408
1511.0600, -57.397
1511.0800, -57.366
1511.1000, -57.358
1511.1200, -57.354
1511.1400, -57.342
1511.1600, -57.325
1511.1800, -57.329
1511.2000, -57.325
1511.2200, -57.303
1511.2400, -57.293
1511.2600, -57.286
1511.2800, -57.274
1511.3000, -57.273
1511.3200, -57.259
1511.3400, -57.244
1511.3600, -57.222
1511.3800, -57.213
1511.4000, -57.209
1511.4200, -57.202
1511.4400, -57.192
1511.4600, -57.183
1511.4800, -57.159
1511.5000, -57.154
1511.5200, -57.142
1511.5400, -57.134
1511.5600, -57.127
1511.5800, -57.093
1511.6000, -57.091
1511.6200, -57.086
1511.6400, -57.069
1511.6600, -57.058
1511.6800, -57.049
1511.7000, -57.027
1511.7200, -57.037
1511.7400, -56.995
1511.7600, -56.988
1511.7800, -56.975
1511.8000, -56.985
1511.8200, -56.970
1511.8400, -56.941
1511.8600, -56.919
1511.8800, -56.932
1511.9000, -56.892
1511.9200, -56.915
1511.9400, -56.898
1511.9600, -56.882
1511.9800, -56.877
1512.0000, -56.850
1512.0200, -56.827
1512.0400, -56.831
1512.0600, -56.823
1512.0800, -56.796
1512.1000, -56.798
1512.1200, -56.796
1512.1400, -56.793
1512.1600, -56.750
1512.1800, -56.763
1512.2000, -56.739
1512.2200, -56.746
1512.2400, -56.731
1512.2600, -56.731
1512.2800, -56.705
1512.3000, -56.679
1512.3200, -56.695
1512.3400, -56.663
1512.3600, -56.656
1512.3800, -56.654
1512.4000, -56.645
1512.4200, -56.629
1512.4400, -56.633
1512.4600, -56.603
1512.4800, -56.602
1512.5000, -56.574
1512.5200, -56.563
1512.5400, -56.537
1512.5600, -56.541
1512.5800, -56.517
1512.6000, -56.515
1512.6200, -56.518
1512.6400, -56.495
1512.6600, -56.484
1512.6800, -56.447
1512.7000, -56.461
1512.7200, -56.450
1512.7400, -56.435
1512.7600, -56.409
1512.7800, -56.403
1512.8000, -56.378
1512.8200, -56.376
1512.8400, -56.371
1512.8600, -56.356
1512.8800, -56.359
1512.9000, -56.332
1512.9200, -56.326
1512.9400, -56.331
1512.9600, -56.310
1512.9800, -56.288
1513.0000, -56.268
1513.0200, -56.268
1513.0400, -56.234
1513.0600, -56.222
1513.0800, -56.223
1513.1000, -56.217
1513.1200, -56.215
1513.1400, -56.192
1513.1600, -56.190
1513.1800, -56.190
1513.2000, -56.182
1513.2200, -56.154
1513.2400, -56.131
1513.2600, -56.134
1513.2800, -56.120
1513.3000, -56.113
1513.3200, -56.102
1513.3400, -56.095
1513.3600, -56.089
1513.3800, -56.039
1513.4000, -56.050
1513.4200, -56.036
1513.4400, -56.025
1513.4600, -55.988
1513.4800, -55.988
1513.5000, -55.975
1513.5200, -55.965
1513.5400, -55.948
1513.5600, -55.935
1513.5800, -55.940
1513.6000, -55.911
1513.6200, -55.909
1513.6400, -55.893
1513.6600, -55.883
1513.6800, -55.876
1513.7000, -55.839
1513.7200, -55.822
1513.7400, -55.818
1513.7600, -55.794
1513.7800, -55.809
1513.8000, -55.783
1513.8200, -55.781
1513.8400, -55.764
1513.8600, -55.737
1513.8800, -55.731
1513.9000, -55.737
1513.9200, -55.701
1513.9400, -55.690
1513.9600, -55.674
1513.9800, -55.652
1514.0000, -55.636
1514.0200, -55.629
1514.0400, -55.633
1514.0600, -55.620
1514.0800, -55.610
1514.1000, -55.597
1514.1200, -55.592
1514.1400, -55.578
1514.1600, -55.563
1514.1800, -55.553
1514.2000, -55.529
1514.2200, -55.520
1514.2400, -55.514
1514.2600, -55.515
1514.2800, -55.480
1514.3000, -55.467
1514.3200, -55.448
1514.3400, -55.447
1514.3600, -55.435
1514.3800, -55.422
1514.4000, -55.406
1514.4200, -55.367
1514.4400, -55.366
1514.4600, -55.365
1514.4800, -55.343
1514.5000, -55.328
1514.5200, -55.321
1514.5400, -55.316
1514.5600, -55.292
1514.5800, -55.280
1514.6000, -55.264
1514.6200, -55.257
1514.6400, -55.229
1514.6600, -55.213
1514.6800, -55.205
1514.7000, -55.189
1514.7200, -55.172
1514.7400, -55.173
1514.7600, -55.156
1514.7800, -55.151
1514.8000, -55.116
1514.8200, -55.114
1514.8400, -55.101
1514.8600, -55.086
1514.8800, -55.057
1514.9000, -55.049
1514.9200, -55.046
1514.9400, -55.022
1514.9600, -55.024
1514.9800, -55.010
1515.0000, -55.000
1515.0200, -54.985
1515.0400, -54.966
1515.0600, -54.949
1515.0800, -54.943
1515.1000, -54.923
1515.1200, -54.910
1515.1400, -54.890
1515.1600, -54.882
1515.1800, -54.869
1515.2000, -54.853
1515.2200, -54.838
1515.2400, -54.815
1515.2600, -54.818
1515.2800, -54.785
1515.3000, -54.782
1515.3200, -54.768
1515.3400, -54.757
1515.3600, -54.716
1515.3800, -54.716
1515.4000, -54.692
1515.4200, -54.690
1515.4400, -54.666
1515.4600, -54.672
1515.4800, -54.649
1515.5000, -54.610
1515.5200, -54.601
1515.5400, -54.606
1515.5600, -54.590
1515.5800, -54.558
1515.6000, -54.545
1515.6200, -54.529
1515.6400, -54.517
1515.6600, -54.496
1515.6800, -54.488
1515.7000, -54.470
1515.7200, -54.464
1515.7400, -54.453
1515.7600, -54.426
1515.7800, -54.415
1515.8000, -54.413
1515.8200, -54.386
1515.8400, -54.375
1515.8600, -54.355
1515.8800, -54.331
1515.9000, -54.307
1515.9200, -54.297
1515.9400, -54.303
1515.9600, -54.288
1515.9800, -54.270
1516.0000, -54.265
1516.0200, -54.241
1516.0400, -54.228
1516.0600, -54.217
1516.0800, -54.188
1516.1000, -54.175
1516.1200, -54.160
1516.1400, -54.146
1516.1600, -54.132
1516.1800, -54.119
1516.2000, -54.096
1516.2200, -54.060
1516.2400, -54.062
1516.2600, -54.055
1516.2800, -54.038
1516.3000, -54.017
1516.3200, -53.991
1516.3400, -53.973
1516.3600, -53.975
1516.3800, -53.941
1516.4000, -53.939
1516.4200, -53.927
1516.4400, -53.897
1516.4600, -53.866
1516.4800, -53.859
1516.5000, -53.852
1516.5200, -53.825
1516.5400, -53.810
1516.5600, -53.787
1516.5800, -53.769
1516.6000, -53.753
1516.6200, -53.743
1516.6400, -53.730
1516.6600, -53.708
1516.6800, -53.698
1516.7000, -53.660
1516.7200, -53.657
1516.7400, -53.643
1516.7600, -53.619
1516.7800, -53.604
1516.8000, -53.580
1516.8200, -53.565
1516.8400, -53.533
1516.8600, -53.518
1516.8800, -53.517
1516.9000, -53.503
1516.9200, -53.489
1516.9400, -53.468
1516.9600, -53.457
1516.9800, -53.437
1517.0000, -53.418
1517.0200, -53.401
1517.0400, -53.373
1517.0600, -53.367
1517.0800, -53.348
1517.1000, -53.333
1517.1200, -53.312
1517.1400, -53.295
1517.1600, -53.256
1517.1800, -53.247
1517.2000, -53.233
1517.2200, -53.218
1517.2400, -53.196
1517.2600, -53.161
1517.2800, -53.144
1517.3000, -53.147
1517.3200, -53.127
1517.3400, -53.097
1517.3600, -53.081
1517.3800, -53.072
1517.4000, -53.033
1517.4200, -53.015
1517.4400, -53.007
1517.4600, -52.987
1517.4800, -52.955
1517.5000, -52.939
1517.5200, -52.922
1517.5400, -52.889
1517.5600, -52.875
1517.5800, -52.869
1517.6000, -52.859
1517.6200, -52.834
1517.6400, -52.804
1517.6600, -52.779
1517.6800, -52.774
1517.7000, -52.747
1517.7200, -52.716
1517.7400, -52.699
1517.7600, -52.679
1517.7800, -52.658
1517.8000, -52.624
1517.8200, -52.622
1517.8400, -52.597
1517.8600, -52.585
1517.8800, -52.576
1517.9000, -52.556
1517.9200, -52.511
1517.9400, -52.519
1517.9600, -52.472
1517.9800, -52.457
1518.0000, -52.438
1518.0200, -52.437
1518.0400, -52.409
1518.0600, -52.395
1518.0800, -52.381
1518.1000, -52.357
1518.1200, -52.315
1518.1400, -52.308
1518.1600, -52.286
1518.1800, -52.261
1518.2000, -52.215
1518.2200, -52.191
1518.2400, -52.182
1518.2600, -52.181
1518.2800, -52.143
1518.3000, -52.134
1518.3200, -52.109
1518.3400, -52.063
1518.3600, -52.049
1518.3800, -52.030
1518.4000, -52.020
1518.4200, -51.982
1518.4400, -51.956
1518.4600, -51.925
1518.4800, -51.905
1518.5000, -51.878
1518.5200, -51.874
1518.5400, -51.853
1518.5600, -51.831
1518.5800, -51.795
1518.6000, -51.773
1518.6200, -51.762
1518.6400, -51.736
1518.6600, -51.691
1518.6800, -51.672
1518.7000, -51.659
1518.7200, -51.637
1518.7400, -51.616
1518.7600, -51.610
1518.7800, -51.586
1518.8000, -51.553
1518.8200, -51.541
1518.8400, -51.514
1518.8600, -51.484
1518.8800, -51.469
1518.9000, -51.453
1518.9200, -51.412
1518.9400, -51.395
1518.9600, -51.366
1518.9800, -51.349
1519.0000, -51.324
1519.0200, -51.308
1519.0400, -51.285
1519.0600, -51.223
1519.0800, -51.229
1519.1000, -51.202
1519.1200, -51.175
1519.1400, -51.121
1519.1600, -51.088
1519.1800, -51.085
1519.2000, -51.074
1519.2200, -51.026
1519.2400, -51.024
1519.2600, -50.991
1519.2800, -50.944
1519.3000, -50.930
1519.3200, -50.900
1519.3400, -50.880
1519.3600, -50.839
1519.3800, -50.799
1519.4000, -50.777
1519.4200, -50.746
1519.4400, -50.715
1519.4600, -50.722
1519.4800, -50.687
1519.5000, -50.665
1519.5200, -50.631
1519.5400, -50.605
1519.5600, -50.578
1519.5800, -50.550
1519.6000, -50.508
1519.6200, -50.466
1519.6400, -50.462
1519.6600, -50.419
1519.6800, -50.379
1519.7000, -50.362
1519.7200, -50.364
1519.7400, -50.341
1519.7600, -50.301
1519.7800, -50.273
1519.8000, -50.253
1519.8200, -50.227
1519.8400, -50.204
1519.8600, -50.151
1519.8800, -50.137
1519.9000, -50.112
1519.9200, -50.086
1519.9400, -50.053
1519.9600, -50.027
1519.9800, -50.003
1520.0000, -49.934
1520.0200, -49.935
1520.0400, -49.910
1520.0600, -49.881
1520.0800, -49.819
1520.1000, -49.771
1520.1200, -49.753
1520.1400, -49.745
1520.1600, -49.693
1520.1800, -49.692
1520.2000, -49.654
1520.2200, -49.605
1520.2400, -49.574
1520.2600, -49.553
1520.2800, -49.528
1520.3000, -49.473
1520.3200, -49.427
1520.3400, -49.414
1520.3600, -49.377
1520.3800, -49.337
1520.4000, -49.325
1520.4200, -49.284
1520.4400, -49.281
1520.4600, -49.230
1520.4800, -49.192
1520.5000, -49.178
1520.5200, -49.136
1520.5400, -49.085
1520.5600, -49.039
1520.5800, -49.021
1520.6000, -49.003
1520.6200, -48.938
